timestamps,TP9,AF7,AF8,TP10,Right AUX
1578400989.042,28.320,39.551,32.227,40.527,-5.859
1578400989.046,31.738,41.992,29.297,37.109,-11.719
1578400989.050,45.410,45.898,35.645,33.691,-0.488
1578400989.054,56.152,43.945,41.504,38.574,38.574
1578400989.058,51.758,34.180,33.203,38.086,68.359
1578400989.062,33.203,25.879,28.320,32.227,32.715
1578400989.066,30.762,24.414,33.203,27.832,0.000
1578400989.070,37.598,27.832,33.691,24.414,66.406
1578400989.073,43.945,37.109,35.645,29.785,43.945
1578400989.077,40.039,41.504,35.156,31.738,26.855
1578400989.081,37.598,37.109,37.109,32.715,79.590
1578400989.085,45.898,37.598,43.945,38.086,51.758
1578400989.089,46.875,39.062,42.480,32.227,12.207
1578400989.093,40.527,36.133,36.133,37.598,20.508
1578400989.097,35.645,34.180,30.762,40.039,-7.812
1578400989.101,34.668,32.227,26.367,35.156,-13.184
1578400989.105,38.086,30.273,29.297,33.203,2.930
1578400989.109,46.875,35.645,33.203,34.180,42.969
1578400989.112,54.199,45.410,44.922,44.922,43.945
1578400989.116,52.246,46.387,43.945,44.434,23.438
1578400989.120,42.480,39.062,35.645,42.480,39.551
1578400989.124,37.598,36.133,37.109,41.016,36.133
1578400989.128,46.387,38.574,35.645,33.691,11.230
1578400989.132,50.293,43.945,34.180,27.344,42.480
1578400989.136,49.805,45.898,30.273,28.320,78.613
1578400989.140,44.434,37.598,31.250,32.227,47.852
1578400989.144,36.621,33.691,42.969,38.086,41.504
1578400989.148,41.992,44.434,51.270,39.551,48.828
1578400989.152,48.828,47.363,40.527,32.227,54.688
1578400989.155,45.898,42.969,27.344,31.738,32.227
1578400989.159,39.551,41.504,32.715,37.598,19.531
1578400989.163,36.133,42.480,36.133,37.109,43.945
1578400989.167,37.598,43.945,35.645,39.062,-0.977
1578400989.171,43.457,44.434,43.457,43.457,-20.996
1578400989.175,43.457,44.434,45.410,39.551,20.508
1578400989.179,36.621,43.457,44.434,41.992,39.551
1578400989.183,22.461,37.109,43.457,37.109,73.242
1578400989.187,16.113,30.273,40.039,28.320,52.246
1578400989.191,24.414,34.180,38.574,28.809,23.438
1578400989.195,33.203,38.086,37.598,32.227,0.977
1578400989.198,41.016,33.691,38.574,43.945,44.434
1578400989.202,25.879,33.203,46.875,46.387,68.848
1578400989.206,9.766,34.180,45.898,32.715,7.324
1578400989.210,24.414,34.180,41.016,33.691,5.859
1578400989.214,23.926,36.133,42.480,27.344,24.414
1578400989.218,24.414,42.480,37.598,27.344,28.809
1578400989.222,23.926,39.551,33.691,37.598,60.059
1578400989.226,10.742,31.738,37.109,27.832,73.730
1578400989.230,17.090,34.668,37.109,20.020,-1.953
1578400989.234,33.203,37.109,36.133,20.996,0.977
1578400989.237,35.156,33.203,36.621,27.832,52.246
1578400989.241,28.809,27.832,37.109,35.645,29.785
1578400989.245,22.949,31.250,35.156,30.273,33.203
1578400989.249,33.691,40.527,38.086,34.180,23.438
1578400989.253,41.016,40.527,40.527,35.156,49.805
1578400989.257,29.297,40.039,38.574,33.203,65.918
1578400989.261,20.996,39.062,39.062,41.504,32.227
1578400989.265,17.090,38.574,39.062,33.203,53.711
1578400989.269,21.484,36.133,41.504,20.996,51.270
1578400989.273,33.691,35.156,45.410,23.926,18.555
1578400989.277,39.062,42.480,42.480,27.832,43.457
1578400989.280,37.598,39.062,37.598,29.785,14.648
1578400989.284,28.809,35.645,37.598,27.344,27.832
1578400989.288,35.645,44.434,40.527,25.391,108.887
1578400989.292,38.086,41.992,37.109,24.414,41.504
1578400989.296,35.156,36.133,28.320,19.043,-15.625
1578400989.300,42.969,38.574,32.715,22.949,10.742
1578400989.304,31.250,40.527,41.504,33.203,52.246
1578400989.308,30.273,40.039,40.039,30.273,73.730
1578400989.312,45.898,37.598,41.504,32.227,75.195
1578400989.316,42.480,40.039,41.992,35.645,58.105
1578400989.320,26.855,40.039,36.133,34.180,40.527
1578400989.323,19.531,37.109,39.062,26.855,41.504
1578400989.327,25.391,44.434,40.039,21.484,50.781
1578400989.331,32.227,44.922,31.250,21.484,42.480
1578400989.335,32.715,43.457,27.344,23.926,25.391
1578400989.339,29.785,41.016,31.250,26.367,61.035
1578400989.343,27.344,36.621,36.133,26.855,80.566
1578400989.347,34.180,40.039,38.086,29.785,32.715
1578400989.351,38.574,39.062,39.062,24.414,46.875
1578400989.355,48.340,44.434,38.574,25.879,37.598
1578400989.359,49.805,44.922,39.062,28.320,-6.836
1578400989.362,24.902,35.645,38.574,30.273,-12.207
1578400989.366,16.113,35.645,38.574,34.668,6.836
1578400989.370,30.273,38.574,39.551,28.809,57.129
1578400989.374,36.133,40.527,38.574,25.879,57.129
1578400989.378,32.227,42.969,38.086,32.227,67.383
1578400989.382,26.367,41.016,39.551,35.645,60.059
1578400989.386,24.902,39.551,41.992,33.203,74.219
1578400989.390,30.273,42.480,43.457,29.297,87.891
1578400989.394,43.457,46.875,41.016,32.715,33.691
1578400989.398,46.875,43.945,39.062,41.016,44.922
1578400989.402,28.809,36.621,33.691,32.227,51.270
1578400989.405,21.484,36.621,30.273,28.320,49.805
1578400989.409,33.691,32.715,33.691,38.086,51.758
1578400989.413,43.457,37.109,38.086,35.645,21.973
1578400989.417,43.945,43.457,38.574,28.320,61.523
1578400989.421,41.016,39.062,35.645,35.645,45.410
1578400989.425,35.156,42.969,34.180,41.992,49.316
1578400989.429,44.434,52.246,34.668,41.992,96.191
1578400989.433,48.828,46.875,31.250,33.203,44.434
1578400989.437,37.598,38.086,33.691,33.203,96.191
1578400989.441,34.180,30.762,34.668,46.387,90.820
1578400989.445,32.715,33.691,38.086,51.758,19.531
1578400989.448,34.180,38.086,36.133,42.969,20.508
1578400989.452,41.016,33.203,26.367,37.598,-7.324
1578400989.456,43.457,35.645,29.785,40.039,-5.371
1578400989.460,39.062,36.621,39.551,41.992,0.000
1578400989.464,35.156,33.691,47.852,42.480,11.230
1578400989.468,38.574,42.969,51.758,34.180,2.930
1578400989.472,42.480,45.410,46.387,32.715,-14.648
1578400989.476,45.898,44.922,41.504,40.039,2.930
1578400989.480,47.852,45.410,38.574,41.504,36.621
1578400989.484,25.879,38.574,34.668,35.156,66.895
1578400989.487,21.973,35.645,34.668,32.715,57.129
1578400989.491,54.199,42.969,30.762,36.621,-11.230
1578400989.495,58.594,47.852,26.855,39.062,-43.457
1578400989.499,48.828,44.434,31.738,41.992,-16.602
1578400989.503,40.039,43.457,42.480,45.410,20.996
1578400989.507,33.691,38.086,41.016,35.156,55.664
1578400989.511,39.062,31.738,33.203,25.391,36.621
1578400989.515,49.805,35.156,32.227,37.109,-10.254
1578400989.519,46.387,39.551,38.086,39.551,4.883
1578400989.523,37.598,35.156,40.527,40.527,0.488
1578400989.527,36.621,29.297,40.039,39.062,46.875
1578400989.530,42.480,34.180,38.574,35.645,52.734
1578400989.534,48.828,38.086,38.086,41.992,32.227
1578400989.538,42.480,33.691,42.969,42.969,101.074
1578400989.542,24.414,29.297,41.992,41.016,83.008
1578400989.546,14.160,25.391,37.598,41.504,36.621
1578400989.550,20.508,27.344,29.297,32.715,68.848
1578400989.554,41.504,39.551,22.949,33.203,53.223
1578400989.558,55.176,45.898,30.762,41.992,7.324
1578400989.562,53.711,39.062,40.039,43.945,16.113
1578400989.566,37.109,37.109,40.527,35.645,20.020
1578400989.570,24.902,40.039,39.062,30.273,26.367
1578400989.573,33.203,41.992,45.410,37.109,53.711
1578400989.577,37.598,41.504,44.434,40.527,16.602
1578400989.581,19.043,32.227,36.133,31.738,76.172
1578400989.585,19.043,31.250,38.574,30.273,73.730
1578400989.589,41.992,38.574,35.645,34.180,27.344
1578400989.593,45.898,37.109,40.039,43.945,49.805
1578400989.597,45.410,30.762,41.016,43.945,24.902
1578400989.601,41.504,28.809,39.062,45.898,10.742
1578400989.605,29.785,35.645,45.410,47.852,53.223
1578400989.609,26.855,31.250,37.598,39.062,23.926
1578400989.612,24.414,23.926,29.785,31.250,-19.531
1578400989.616,24.414,25.391,33.691,32.227,49.805
1578400989.620,25.391,28.809,35.156,40.527,73.730
1578400989.624,33.203,25.391,38.086,42.480,33.691
1578400989.628,36.133,23.926,35.156,33.203,19.043
1578400989.632,39.551,32.715,31.738,33.203,12.695
1578400989.636,46.387,32.715,30.762,41.992,3.418
1578400989.640,46.387,35.156,29.297,43.945,9.277
1578400989.644,39.062,33.203,32.227,36.621,22.461
1578400989.648,16.602,25.391,27.344,24.902,50.293
1578400989.652,21.484,27.832,25.879,18.066,81.055
1578400989.655,44.434,31.738,32.715,24.414,86.426
1578400989.659,39.551,33.691,30.273,32.227,39.551
1578400989.663,31.250,33.203,28.320,24.902,76.172
1578400989.667,32.715,33.691,36.133,32.227,28.320
1578400989.671,41.504,37.109,45.410,41.016,16.113
1578400989.675,50.293,35.645,37.109,32.715,70.801
1578400989.679,33.691,33.203,26.367,29.785,10.742
1578400989.683,28.320,28.320,32.715,36.133,-18.555
1578400989.687,23.926,28.320,37.598,30.273,-2.441
1578400989.691,26.855,34.180,35.645,25.879,-3.906
1578400989.695,44.922,30.762,38.086,30.762,-21.484
1578400989.698,43.945,30.273,42.480,40.527,17.578
1578400989.702,31.250,33.203,38.574,39.551,39.551
1578400989.706,27.832,34.668,37.598,27.832,28.320
1578400989.710,39.062,29.785,39.551,35.156,-6.348
1578400989.714,52.734,36.621,35.156,33.203,18.066
1578400989.718,44.922,41.504,37.598,31.250,58.594
1578400989.722,35.156,32.715,38.086,40.527,1.953
1578400989.726,39.551,34.180,37.598,36.621,-34.668
1578400989.730,46.875,37.598,37.109,29.297,-17.578
1578400989.734,58.594,44.922,39.551,31.738,27.344
1578400989.737,45.410,43.945,35.645,31.738,53.711
1578400989.741,36.133,33.203,32.227,30.273,52.734
1578400989.745,37.598,32.227,39.551,31.250,84.473
1578400989.749,37.109,31.250,44.434,34.668,86.914
1578400989.753,41.504,34.180,40.039,40.039,50.293
1578400989.757,40.039,40.527,32.227,38.086,24.902
1578400989.761,34.180,34.668,36.621,42.969,16.602
1578400989.765,31.738,35.156,41.992,41.504,0.000
1578400989.769,36.133,34.180,36.133,34.180,-16.602
1578400989.773,41.016,28.320,31.250,39.551,22.949
1578400989.777,45.898,24.902,35.645,41.504,50.781
1578400989.780,41.992,23.926,37.109,37.598,41.016
1578400989.784,33.691,27.832,38.086,36.133,35.645
1578400989.788,33.691,25.391,41.016,35.156,70.312
1578400989.792,48.340,34.668,41.016,33.203,90.332
1578400989.796,65.918,42.480,41.992,39.062,55.176
1578400989.800,51.270,32.227,36.621,38.574,22.949
1578400989.804,39.551,30.273,36.621,35.645,26.367
1578400989.808,47.852,32.715,39.551,31.738,62.012
1578400989.812,46.387,38.574,38.086,31.738,31.738
1578400989.816,44.434,41.016,36.621,43.945,-24.414
1578400989.820,39.062,41.504,37.109,46.387,30.273
1578400989.823,30.762,47.363,41.016,31.250,38.086
1578400989.827,19.531,43.457,40.527,18.555,-34.668
1578400989.831,17.090,35.645,37.109,27.832,-35.645
1578400989.835,27.344,37.109,33.203,28.809,10.254
1578400989.839,25.391,37.109,28.320,26.855,41.016
1578400989.843,25.879,37.109,29.785,40.039,30.273
1578400989.847,24.414,35.645,32.227,51.758,28.809
1578400989.851,33.203,33.203,35.645,45.898,36.133
1578400989.855,45.410,43.945,35.156,41.992,65.918
1578400989.859,45.410,46.387,34.180,41.992,57.129
1578400989.862,43.457,38.086,26.367,38.574,31.738
1578400989.866,48.828,43.457,22.949,38.086,22.461
1578400989.870,58.105,47.852,27.832,30.273,-38.574
1578400989.874,71.289,53.223,30.762,33.691,8.789
1578400989.878,69.336,54.688,29.785,41.504,91.309
1578400989.882,57.617,48.828,34.180,45.898,103.027
1578400989.886,52.246,41.504,39.551,42.969,101.074
1578400989.890,31.250,38.574,29.297,32.715,29.297
1578400989.894,32.227,44.434,26.367,34.668,22.949
1578400989.898,43.945,42.969,36.621,51.758,86.914
1578400989.902,41.016,33.203,38.086,48.340,41.016
1578400989.905,26.855,32.715,34.668,41.504,49.805
1578400989.909,40.527,38.086,34.180,47.363,38.574
1578400989.913,60.547,45.410,35.156,42.480,-24.414
1578400989.917,57.129,49.805,39.062,42.480,14.648
1578400989.921,38.574,42.969,35.156,45.410,-1.953
1578400989.925,27.344,33.691,33.691,41.504,-25.879
1578400989.929,34.180,30.273,36.621,39.062,-0.488
1578400989.933,37.109,37.598,33.691,45.410,13.184
1578400989.937,38.086,41.504,28.809,50.781,34.668
1578400989.941,41.504,41.016,25.391,57.617,55.176
1578400989.945,44.922,36.133,27.344,52.246,30.762
1578400989.948,43.945,29.785,35.645,42.969,17.090
1578400989.952,56.152,41.016,37.598,50.781,48.340
1578400989.956,53.711,41.504,31.738,43.945,24.414
1578400989.960,31.738,34.668,33.691,33.203,14.648
1578400989.964,22.461,39.551,34.668,32.227,3.418
1578400989.968,32.227,40.039,32.715,36.133,39.551
1578400989.972,40.039,42.969,37.109,33.691,35.156
1578400989.976,48.340,44.434,40.039,32.715,27.832
1578400989.980,51.270,43.457,43.945,47.363,50.293
1578400989.984,23.438,40.039,38.574,46.875,62.500
1578400989.987,22.461,30.273,27.832,33.691,36.133
1578400989.991,58.105,32.227,37.109,33.691,17.578
1578400989.995,58.105,39.551,41.016,39.062,10.742
1578400989.999,53.223,36.621,35.156,39.062,19.043
1578400990.003,50.293,37.598,36.621,41.992,48.340
1578400990.007,38.086,38.574,39.062,40.039,50.781
1578400990.011,42.480,39.062,37.598,34.180,1.953
1578400990.015,46.875,47.852,38.574,29.297,22.461
1578400990.019,31.250,45.898,37.598,28.320,122.559
1578400990.023,28.809,40.039,37.109,37.598,78.613
1578400990.027,26.855,38.086,37.109,34.668,9.766
1578400990.030,35.645,33.203,35.645,36.621,14.160
1578400990.034,57.129,33.203,32.227,47.363,15.137
1578400990.038,43.457,43.457,29.297,33.691,32.715
1578400990.042,27.344,42.480,29.297,31.250,45.898
1578400990.046,29.785,29.785,25.879,30.273,13.672
1578400990.050,36.133,29.297,30.273,18.066,-9.277
1578400990.054,40.039,36.133,27.832,24.902,-24.414
1578400990.058,42.480,38.086,27.832,28.320,21.973
1578400990.062,39.062,36.133,35.645,32.227,60.547
1578400990.066,34.668,35.645,35.156,40.527,40.527
1578400990.070,38.086,34.668,36.621,34.180,-1.953
1578400990.073,44.434,38.574,35.156,31.738,9.766
1578400990.077,50.781,44.922,35.645,34.668,68.848
1578400990.081,49.805,42.969,36.133,41.992,83.008
1578400990.085,33.203,32.715,34.180,36.621,90.820
1578400990.089,30.273,33.691,33.691,26.855,44.922
1578400990.093,43.457,40.039,29.785,33.203,22.949
1578400990.097,44.922,41.992,32.227,37.109,61.523
1578400990.101,43.945,43.457,36.621,35.156,21.973
1578400990.105,41.504,38.086,35.645,34.668,-12.695
1578400990.109,34.180,34.180,33.691,30.273,-14.648
1578400990.112,38.086,40.039,39.062,25.879,-10.742
1578400990.116,29.785,38.086,36.133,31.738,-6.348
1578400990.120,22.949,29.785,27.344,36.621,52.246
1578400990.124,26.855,31.250,28.320,32.715,49.316
1578400990.128,21.484,36.133,31.250,30.273,62.988
1578400990.132,41.016,35.156,36.621,36.133,60.059
1578400990.136,53.711,37.109,37.598,42.480,28.320
1578400990.140,52.246,36.133,37.598,50.781,56.641
1578400990.144,40.527,31.250,37.598,45.898,34.180
1578400990.148,35.645,32.715,36.133,33.691,-34.180
1578400990.152,39.062,39.551,43.945,40.527,3.906
1578400990.155,42.480,41.016,47.852,46.875,-3.906
1578400990.159,48.828,38.086,39.551,39.062,33.691
1578400990.163,21.484,33.691,32.227,39.551,77.148
1578400990.167,7.812,27.344,34.180,41.504,17.578
1578400990.171,44.434,28.320,39.551,36.133,44.922
1578400990.175,53.711,41.992,35.156,36.133,48.828
1578400990.179,43.945,46.387,28.809,38.086,85.449
1578400990.183,21.973,40.039,36.621,43.945,106.445
1578400990.187,36.133,36.621,45.410,46.875,15.625
1578400990.191,32.227,28.809,34.180,37.109,-3.906
1578400990.195,42.480,38.086,26.855,38.574,33.203
1578400990.198,29.785,47.852,36.133,32.715,47.363
1578400990.202,15.625,39.062,39.551,38.086,35.156
1578400990.206,71.777,42.969,35.156,57.129,41.016
1578400990.210,54.199,48.828,36.621,41.992,55.664
1578400990.214,23.926,44.922,41.016,23.926,60.059
1578400990.218,55.664,52.734,44.434,42.480,38.574
1578400990.222,43.457,54.199,42.969,42.480,44.434
1578400990.226,13.672,40.527,36.621,29.297,59.570
1578400990.230,34.180,41.504,33.691,26.855,-8.301
1578400990.234,40.527,46.875,34.180,20.996,-6.348
1578400990.237,44.434,41.992,33.203,20.508,62.012
1578400990.241,-43.945,37.109,33.203,18.555,59.570
1578400990.245,-25.391,30.762,34.668,23.926,54.199
1578400990.249,89.844,34.668,30.762,24.414,30.762
1578400990.253,58.105,41.016,31.738,22.949,47.363
1578400990.257,51.270,38.086,31.250,33.203,74.707
1578400990.261,61.523,27.832,23.438,36.133,36.621
1578400990.265,55.176,31.738,25.879,33.203,18.555
1578400990.269,44.922,25.879,35.645,35.156,11.230
1578400990.273,58.105,25.391,30.273,35.156,40.039
1578400990.277,60.059,41.016,26.855,42.480,26.855
1578400990.280,48.828,42.969,26.855,47.852,53.223
1578400990.284,50.781,35.645,26.367,51.270,56.641
1578400990.288,62.500,32.227,31.738,43.457,27.832
1578400990.292,70.801,33.691,25.879,31.250,44.922
1578400990.296,47.363,40.527,23.926,28.809,18.066
1578400990.300,41.504,38.574,26.367,32.227,46.387
1578400990.304,58.594,37.109,27.832,37.598,50.781
1578400990.308,54.688,45.898,27.344,34.668,-4.395
1578400990.312,43.945,39.551,28.809,38.086,-9.766
1578400990.316,50.781,40.527,32.715,37.109,31.250
1578400990.320,66.406,44.434,37.109,37.598,47.852
1578400990.323,53.711,39.062,33.203,36.621,46.387
1578400990.327,46.875,35.645,26.367,36.133,90.820
1578400990.331,54.199,33.203,32.227,38.086,82.031
1578400990.335,46.875,38.574,37.109,38.086,36.133
1578400990.339,42.969,37.109,33.691,41.016,19.531
1578400990.343,46.387,32.715,34.668,42.480,-32.715
1578400990.347,36.133,37.109,31.250,41.504,-27.832
1578400990.351,45.898,45.898,31.738,35.645,-17.578
1578400990.355,53.711,50.293,33.691,33.691,-47.363
1578400990.359,46.387,43.457,24.902,30.762,-32.227
1578400990.362,46.387,38.086,28.809,31.250,-21.973
1578400990.366,35.645,38.086,34.668,23.438,12.207
1578400990.370,27.344,42.480,30.273,17.578,44.922
1578400990.374,40.527,40.039,26.855,28.320,48.340
1578400990.378,62.012,42.480,28.809,31.250,30.762
1578400990.382,53.223,42.480,33.203,35.645,8.301
1578400990.386,33.691,44.434,33.691,38.574,25.391
1578400990.390,38.086,44.922,40.039,34.668,68.359
1578400990.394,42.969,41.992,35.156,34.180,71.289
1578400990.398,42.969,42.480,30.762,37.598,48.340
1578400990.402,40.039,34.668,37.598,46.875,85.449
1578400990.405,34.180,28.809,41.992,48.828,54.199
1578400990.409,34.668,33.691,43.945,38.574,53.711
1578400990.413,47.852,41.504,43.457,35.645,65.430
1578400990.417,59.570,45.410,45.898,47.363,18.555
1578400990.421,52.734,41.504,46.387,46.875,27.344
1578400990.425,40.039,40.039,35.645,39.551,14.648
1578400990.429,35.156,41.016,35.156,38.086,-14.160
1578400990.433,49.316,38.086,39.551,36.133,-35.645
1578400990.437,52.734,39.551,39.062,34.180,-1.465
1578400990.441,36.621,40.527,37.109,44.922,56.641
1578400990.445,34.180,39.062,38.086,47.363,64.453
1578400990.448,37.109,38.574,40.527,32.227,59.570
1578400990.452,47.852,42.480,42.969,34.180,65.918
1578400990.456,58.594,41.992,45.410,44.922,49.805
1578400990.460,42.969,34.180,40.039,28.809,36.621
1578400990.464,23.438,34.180,31.250,22.461,63.965
1578400990.468,29.785,35.645,30.762,42.480,45.410
1578400990.472,45.410,38.574,35.156,41.992,-1.465
1578400990.476,48.340,48.340,33.691,41.016,0.977
1578400990.480,41.504,45.898,33.691,41.992,84.961
1578400990.484,36.621,37.109,38.574,45.410,64.941
1578400990.487,30.273,43.945,39.062,41.016,6.836
1578400990.491,30.762,41.504,36.133,28.320,47.852
1578400990.495,43.457,41.504,35.156,39.062,50.293
1578400990.499,41.016,41.016,40.039,40.527,56.152
1578400990.503,29.785,32.715,38.086,41.992,65.918
1578400990.507,28.320,32.715,32.715,48.340,56.641
1578400990.511,40.039,37.109,40.527,37.109,62.012
1578400990.515,44.922,36.621,43.457,34.180,-13.672
1578400990.519,45.410,43.945,42.480,49.805,-41.504
1578400990.523,36.133,44.922,36.621,43.457,12.207
1578400990.527,25.879,37.109,33.203,29.297,15.625
1578400990.530,39.062,35.156,34.668,34.180,-7.812
1578400990.534,48.340,43.945,31.250,36.621,83.984
1578400990.538,48.828,49.316,33.691,47.852,113.281
1578400990.542,39.551,45.898,40.527,39.062,62.988
1578400990.546,24.902,44.434,43.457,32.227,46.387
1578400990.550,31.738,46.387,43.945,51.758,34.180
1578400990.554,40.527,49.316,43.945,46.387,37.598
1578400990.558,39.551,42.969,38.086,36.133,60.059
1578400990.562,31.738,38.574,38.086,35.645,54.199
1578400990.566,22.461,39.551,39.551,27.344,41.992
1578400990.570,24.414,38.574,39.551,29.297,-15.137
1578400990.573,38.574,41.504,37.598,36.621,22.461
1578400990.577,54.199,45.898,40.039,42.480,43.457
1578400990.581,47.852,50.293,46.875,46.875,22.949
1578400990.585,35.645,44.922,40.527,39.551,3.418
1578400990.589,37.109,37.109,37.598,38.086,-10.254
1578400990.593,44.434,37.109,39.062,33.203,50.293
1578400990.597,50.781,40.039,36.133,29.297,44.922
1578400990.601,45.410,40.039,29.785,38.574,9.766
1578400990.605,34.180,40.039,26.855,38.574,18.555
1578400990.609,34.668,41.016,27.832,32.227,64.941
1578400990.612,44.922,45.898,35.156,35.645,28.809
1578400990.616,44.922,43.945,36.133,39.062,15.625
1578400990.620,35.645,31.250,29.785,34.668,51.758
1578400990.624,25.391,34.180,26.367,31.250,19.043
1578400990.628,22.461,39.062,24.414,29.785,26.367
1578400990.632,30.273,36.621,31.738,29.785,71.289
1578400990.636,38.086,41.992,35.645,29.785,91.797
1578400990.640,39.062,45.898,34.668,43.945,70.312
1578400990.644,28.809,42.969,33.203,45.898,71.289
1578400990.648,23.438,38.574,36.621,37.598,44.434
1578400990.652,34.180,40.527,43.945,40.039,0.000
1578400990.655,39.062,38.574,41.504,34.668,49.805
1578400990.659,39.062,30.762,32.715,30.273,70.312
1578400990.663,35.645,30.273,31.738,27.832,27.832
1578400990.667,36.133,38.086,34.180,29.785,20.996
1578400990.671,46.387,41.504,33.203,34.668,7.812
1578400990.675,61.035,42.969,34.180,40.527,-33.691
1578400990.679,57.129,40.039,41.016,42.480,-8.789
1578400990.683,42.969,36.621,45.898,41.992,55.176
1578400990.687,35.645,37.109,34.668,37.598,37.598
1578400990.691,22.949,31.738,30.762,26.367,-12.207
1578400990.695,27.832,33.203,37.598,24.902,-13.672
1578400990.698,42.480,34.668,37.598,35.645,21.973
1578400990.702,37.109,29.785,37.598,41.016,57.129
1578400990.706,30.273,26.367,37.109,33.203,38.574
1578400990.710,31.250,23.926,37.598,30.762,42.480
1578400990.714,42.969,26.367,35.645,41.504,58.594
1578400990.718,51.270,34.668,36.621,51.270,57.129
1578400990.722,43.945,40.527,37.598,49.316,75.195
1578400990.726,34.668,30.273,34.668,44.434,69.824
1578400990.730,34.180,28.320,34.668,37.109,35.156
1578400990.734,41.992,37.109,36.133,37.109,12.207
1578400990.737,46.387,34.668,40.039,41.992,53.711
1578400990.741,45.410,30.273,36.621,41.504,64.453
1578400990.745,45.898,29.297,36.133,43.945,2.441
1578400990.749,45.410,30.762,36.133,42.969,22.461
1578400990.753,49.805,35.156,38.086,35.645,29.785
1578400990.757,55.176,45.898,37.598,34.180,8.301
1578400990.761,43.945,41.504,29.297,32.227,21.484
1578400990.765,30.762,31.738,29.297,35.156,62.988
1578400990.769,37.109,36.133,36.621,40.039,57.129
1578400990.773,42.969,33.691,40.527,39.551,23.926
1578400990.777,52.734,35.645,41.016,45.898,2.930
1578400990.780,56.641,35.645,38.574,49.805,-2.441
1578400990.784,47.363,38.574,41.504,52.246,49.316
1578400990.788,37.598,41.504,41.016,50.293,27.832
1578400990.792,31.250,33.691,31.738,42.480,-3.906
1578400990.796,35.645,30.762,31.250,38.574,-7.324
1578400990.800,43.457,31.738,41.504,38.086,9.277
1578400990.804,37.598,41.992,35.645,39.062,-2.930
1578400990.808,30.762,46.387,28.809,43.457,-25.879
1578400990.812,45.410,46.387,33.203,44.434,3.418
1578400990.816,63.477,47.363,41.504,49.316,8.789
1578400990.820,62.988,48.828,45.898,51.270,19.531
1578400990.823,46.387,43.457,34.180,41.992,36.621
1578400990.827,38.086,37.109,31.250,41.016,55.176
1578400990.831,46.387,39.062,33.691,42.969,75.195
1578400990.835,61.035,46.875,34.180,44.922,68.359
1578400990.839,56.152,46.387,35.645,41.992,80.078
1578400990.843,43.945,41.992,34.180,38.086,35.645
1578400990.847,37.109,37.598,28.809,31.250,31.250
1578400990.851,42.969,32.227,34.180,27.832,62.500
1578400990.855,57.617,37.598,40.039,37.598,59.570
1578400990.859,61.035,41.016,38.086,41.992,33.203
1578400990.862,39.062,37.598,40.527,27.832,40.039
1578400990.866,27.344,31.250,39.551,32.227,87.402
1578400990.870,36.621,32.227,37.109,38.086,52.246
1578400990.874,39.062,41.992,36.133,21.484,23.438
1578400990.878,47.363,46.875,35.645,26.855,3.418
1578400990.882,38.574,47.852,34.668,34.180,6.348
1578400990.886,30.762,43.945,28.809,33.203,13.672
1578400990.890,38.574,42.480,28.809,35.645,22.949
1578400990.894,47.363,49.805,37.598,38.574,56.641
1578400990.898,40.039,46.387,35.156,40.039,58.594
1578400990.902,25.391,37.109,26.855,33.203,20.996
1578400990.905,26.367,36.621,28.320,35.645,0.488
1578400990.909,27.344,36.133,25.879,32.227,11.230
1578400990.913,36.621,37.109,21.973,27.344,41.504
1578400990.917,44.922,40.039,24.902,34.180,55.176
1578400990.921,33.691,38.574,27.344,37.109,0.977
1578400990.925,29.297,35.156,20.508,29.297,1.953
1578400990.929,39.062,38.574,20.996,36.621,31.250
1578400990.933,47.363,41.992,30.762,41.016,31.738
1578400990.937,40.039,35.645,26.855,33.691,46.875
1578400990.941,28.320,34.668,24.902,32.227,78.125
1578400990.945,23.926,36.133,29.785,31.250,49.805
1578400990.948,24.902,36.621,33.691,24.902,-0.488
1578400990.952,36.621,39.062,36.133,33.203,10.742
1578400990.956,47.852,38.574,38.086,52.734,24.414
1578400990.960,44.922,38.086,38.574,47.363,20.508
1578400990.964,34.668,33.203,30.273,40.039,57.617
1578400990.968,29.297,27.832,25.879,46.875,57.617
1578400990.972,30.762,28.809,28.809,40.527,59.570
1578400990.976,43.457,28.809,36.133,43.457,84.961
1578400990.980,47.363,24.902,37.598,52.734,36.133
1578400990.984,44.434,33.203,37.109,45.410,59.082
1578400990.987,45.410,45.410,39.062,42.480,97.656
1578400990.991,47.363,44.434,38.574,40.527,24.902
1578400990.995,54.688,42.969,37.109,39.062,23.926
1578400990.999,61.523,54.199,42.480,50.781,62.988
1578400991.003,55.664,55.664,40.039,54.688,58.105
1578400991.007,46.387,49.316,32.715,47.363,46.875
1578400991.011,48.828,51.758,42.969,45.410,30.762
1578400991.015,42.480,45.410,46.387,35.156,11.230
1578400991.019,35.645,37.598,38.574,30.762,-4.883
1578400991.023,29.785,31.738,35.645,35.645,-17.578
1578400991.027,31.738,30.273,38.574,41.992,-18.066
1578400991.030,32.715,33.691,36.621,46.387,-32.227
1578400991.034,32.227,35.156,32.715,38.574,33.203
1578400991.038,35.156,38.086,31.738,29.785,52.246
1578400991.042,34.180,32.227,32.715,32.227,-17.090
1578400991.046,29.785,29.297,30.273,37.109,48.340
1578400991.050,29.297,34.668,33.691,30.273,65.918
1578400991.054,41.504,38.574,40.527,32.715,16.113
1578400991.058,51.758,42.480,37.598,35.156,21.973
1578400991.062,43.457,41.504,33.691,27.344,69.824
1578400991.066,41.016,43.945,35.156,33.691,84.961
1578400991.070,52.734,41.992,36.133,41.016,21.973
1578400991.073,53.223,37.109,36.133,36.133,37.598
1578400991.077,52.734,33.691,33.691,36.621,56.641
1578400991.081,51.758,30.273,31.738,41.504,17.578
1578400991.085,35.645,35.156,37.109,43.945,39.062
1578400991.089,28.320,39.551,44.922,44.922,18.066
1578400991.093,35.645,42.480,42.969,40.527,5.371
1578400991.097,45.898,48.340,41.016,42.480,23.438
1578400991.101,35.645,46.387,40.039,41.016,50.293
1578400991.105,24.902,34.668,36.133,36.133,51.270
1578400991.109,35.156,29.297,33.203,35.156,15.137
1578400991.112,49.805,37.598,29.785,37.109,-18.555
1578400991.116,59.570,43.945,36.133,43.945,-45.898
1578400991.120,55.664,43.945,42.480,47.852,10.742
1578400991.124,41.504,41.504,32.715,44.434,49.805
1578400991.128,36.621,36.133,31.250,35.645,37.109
1578400991.132,41.992,38.574,38.574,37.109,47.363
1578400991.136,41.504,43.457,36.621,44.434,54.199
1578400991.140,30.273,34.668,30.273,39.551,45.898
1578400991.144,22.949,28.809,25.391,31.738,47.363
1578400991.148,30.762,27.344,27.832,38.574,-16.113
1578400991.152,32.227,31.250,29.297,33.691,17.578
1578400991.155,22.461,34.180,33.691,17.090,63.965
1578400991.159,23.926,37.598,33.691,16.602,17.578
1578400991.163,21.484,35.645,31.250,20.508,47.852
1578400991.167,20.508,36.133,40.039,29.297,51.270
1578400991.171,29.785,41.504,38.574,29.297,11.230
1578400991.175,33.203,39.062,27.344,19.043,53.711
1578400991.179,35.156,37.598,22.949,24.902,96.680
1578400991.183,28.320,36.133,28.809,30.273,100.586
1578400991.187,21.484,30.762,42.969,28.809,41.016
1578400991.191,28.320,31.250,44.922,29.785,-25.879
1578400991.195,31.738,36.133,38.086,34.668,23.926
1578400991.198,36.621,32.715,36.621,46.875,55.176
1578400991.202,37.109,31.738,36.133,54.199,65.430
1578400991.206,24.902,28.320,33.691,46.387,35.645
1578400991.210,29.785,28.809,29.785,45.410,12.695
1578400991.214,39.551,35.645,28.809,50.781,26.367
1578400991.218,43.457,34.180,36.621,45.410,-2.930
1578400991.222,40.039,32.715,39.551,43.945,21.973
1578400991.226,33.691,30.762,41.016,42.969,67.383
1578400991.230,30.273,31.738,44.922,37.109,86.426
1578400991.234,28.809,37.109,45.898,28.809,101.074
1578400991.237,39.062,41.016,38.086,31.250,72.266
1578400991.241,37.109,39.551,32.715,35.645,50.781
1578400991.245,24.414,34.668,35.645,27.832,26.855
1578400991.249,22.461,35.156,34.180,29.785,-20.996
1578400991.253,32.715,35.645,30.762,32.227,32.227
1578400991.257,45.410,30.762,30.273,31.738,79.102
1578400991.261,44.922,37.109,32.715,39.551,43.945
1578400991.265,37.598,41.992,29.785,45.410,15.625
1578400991.269,32.715,37.598,27.344,42.480,5.371
1578400991.273,27.344,32.715,32.715,35.156,27.832
1578400991.277,35.645,33.691,35.645,31.738,24.902
1578400991.280,42.969,39.062,35.156,31.250,32.715
1578400991.284,29.297,37.598,38.574,31.250,40.527
1578400991.288,24.414,34.180,40.039,30.273,-5.371
1578400991.292,32.715,34.180,36.133,30.762,23.438
1578400991.296,46.387,39.062,43.945,36.133,39.551
1578400991.300,45.898,43.945,46.387,37.598,77.637
1578400991.304,34.180,39.062,33.691,35.645,139.160
1578400991.308,32.715,37.109,30.273,25.391,96.191
1578400991.312,40.527,40.039,34.668,21.973,36.133
1578400991.316,48.828,44.434,36.621,33.203,25.391
1578400991.320,50.293,49.316,36.133,35.156,100.586
1578400991.323,44.434,42.480,34.668,30.762,128.906
1578400991.327,35.645,38.574,39.062,30.273,25.391
1578400991.331,40.039,41.992,39.551,34.180,-5.371
1578400991.335,41.992,37.109,36.621,34.180,21.973
1578400991.339,37.598,37.598,36.133,31.738,-2.441
1578400991.343,35.156,41.992,32.227,34.180,2.930
1578400991.347,26.855,41.016,25.391,32.715,12.695
1578400991.351,29.297,38.086,28.320,30.762,50.293
1578400991.355,38.574,39.551,36.133,34.668,71.777
1578400991.359,40.039,46.387,37.598,39.551,20.996
1578400991.362,38.574,51.270,41.016,42.969,15.625
1578400991.366,31.738,44.922,37.109,27.832,29.297
1578400991.370,27.344,41.992,31.250,13.184,22.461
1578400991.374,34.668,44.434,34.180,23.438,33.203
1578400991.378,40.527,40.527,35.156,33.203,55.176
1578400991.382,38.086,44.922,37.109,38.574,49.805
1578400991.386,32.715,43.945,37.109,37.109,56.152
1578400991.390,27.344,36.621,37.109,28.809,54.688
1578400991.394,36.133,44.922,37.598,35.645,72.754
1578400991.398,45.898,51.270,42.969,43.945,72.266
1578400991.402,34.180,37.109,48.828,37.598,56.641
1578400991.405,15.625,29.297,41.992,25.879,26.367
1578400991.409,19.043,29.297,39.551,20.508,13.672
1578400991.413,32.715,32.715,40.039,20.020,43.945
1578400991.417,30.273,39.551,38.574,24.902,65.918
1578400991.421,28.320,43.457,39.551,31.738,63.965
1578400991.425,27.832,41.504,37.109,30.762,11.230
1578400991.429,17.090,34.180,32.715,20.508,18.555
1578400991.433,23.926,37.598,31.250,19.531,28.809
1578400991.437,32.715,39.062,32.715,22.461,25.879
1578400991.441,32.227,33.691,34.668,26.855,16.602
1578400991.445,27.832,30.762,30.273,31.738,-14.160
1578400991.448,23.438,26.367,31.250,33.203,7.812
1578400991.452,34.668,28.320,39.062,37.109,-1.953
1578400991.456,42.480,32.715,38.086,39.551,24.414
1578400991.460,37.598,28.809,30.762,39.551,60.547
1578400991.464,32.715,28.320,32.227,40.527,27.344
1578400991.468,34.180,33.203,29.785,37.598,23.926
1578400991.472,38.086,39.062,24.414,24.414,24.902
1578400991.476,41.992,37.109,26.855,18.066,5.371
1578400991.480,45.410,40.039,27.832,25.391,32.227
1578400991.484,37.109,41.992,28.809,27.832,51.758
1578400991.487,25.879,38.574,37.109,30.762,6.836
1578400991.491,27.832,39.062,38.086,34.180,13.672
1578400991.495,38.574,41.504,36.621,35.156,28.320
1578400991.499,45.898,39.551,39.551,40.527,41.992
1578400991.503,36.133,33.691,36.133,37.109,63.965
1578400991.507,30.762,35.645,29.297,27.832,65.430
1578400991.511,38.574,41.016,36.621,25.879,42.480
1578400991.515,44.922,42.480,40.039,27.344,33.691
1578400991.519,47.852,40.039,38.086,31.738,23.926
1578400991.523,42.969,36.621,36.133,35.156,9.766
1578400991.527,33.691,40.527,33.691,32.227,72.266
1578400991.530,31.250,44.434,37.598,30.273,75.684
1578400991.534,46.875,45.898,47.852,36.133,9.766
1578400991.538,55.664,38.574,42.480,33.691,-48.828
1578400991.542,42.480,35.645,31.738,32.227,0.488
1578400991.546,35.645,43.945,31.250,39.551,71.777
1578400991.550,37.598,40.039,27.832,37.598,84.473
1578400991.554,44.434,43.457,27.832,31.738,57.129
1578400991.558,51.758,46.387,34.668,38.574,-3.906
1578400991.562,45.898,35.645,43.945,47.852,1.953
1578400991.566,29.785,39.062,50.293,44.434,2.441
1578400991.570,33.203,51.270,50.293,41.504,19.043
1578400991.573,35.156,44.922,44.922,37.598,28.809
1578400991.577,37.109,40.527,46.387,37.598,87.891
1578400991.581,35.645,37.598,47.852,41.504,96.680
1578400991.585,20.508,33.691,44.434,39.062,69.336
1578400991.589,17.090,31.738,43.945,36.133,52.246
1578400991.593,29.297,31.250,46.387,34.668,53.223
1578400991.597,39.551,32.227,43.457,36.133,9.277
1578400991.601,34.180,32.715,35.645,35.156,-43.457
1578400991.605,28.320,29.785,42.969,38.574,-8.301
1578400991.609,23.438,23.438,43.945,34.180,16.602
1578400991.612,31.738,27.832,35.645,35.156,4.883
1578400991.616,46.387,36.621,43.457,46.875,-36.621
1578400991.620,50.293,37.598,46.387,54.199,-24.902
1578400991.624,47.852,36.621,44.922,55.176,-18.066
1578400991.628,44.434,36.133,47.852,46.875,-20.996
1578400991.632,42.969,34.668,43.457,39.062,7.324
1578400991.636,43.945,38.574,43.945,41.992,15.625
1578400991.640,37.598,41.504,45.410,42.480,16.602
1578400991.644,29.785,39.551,42.480,42.969,37.598
1578400991.648,27.344,40.039,41.016,41.992,12.695
1578400991.652,22.949,37.598,40.039,29.297,-16.113
1578400991.655,36.621,34.668,38.574,24.902,25.879
1578400991.659,50.293,40.039,38.574,30.762,42.480
1578400991.663,49.805,41.504,47.363,43.457,99.121
1578400991.667,43.945,37.109,45.898,46.875,110.840
1578400991.671,37.598,31.738,33.203,38.086,65.918
1578400991.675,48.828,35.645,28.809,35.156,110.352
1578400991.679,55.176,40.039,32.715,41.992,135.742
1578400991.683,43.457,38.574,34.668,47.852,47.363
1578400991.687,31.738,37.598,36.133,41.504,30.762
1578400991.691,25.391,34.668,42.969,36.621,74.707
1578400991.695,33.691,35.156,45.410,43.457,35.156
1578400991.698,43.457,39.551,46.387,45.898,68.359
1578400991.702,38.086,41.504,49.805,41.016,123.535
1578400991.706,29.297,36.133,43.457,35.645,68.848
1578400991.710,29.297,39.551,35.645,29.297,60.059
1578400991.714,34.180,40.039,35.645,25.879,18.066
1578400991.718,39.551,32.715,34.668,28.320,-50.293
1578400991.722,37.598,33.203,37.598,33.203,7.812
1578400991.726,26.367,37.598,41.016,34.180,53.223
1578400991.730,24.414,37.109,41.016,36.133,25.879
1578400991.734,27.832,35.156,36.133,31.250,-3.418
1578400991.737,33.691,36.621,29.297,23.926,13.672
1578400991.741,36.621,32.715,31.738,28.809,67.871
1578400991.745,31.738,36.133,39.062,35.156,15.137
1578400991.749,30.762,45.898,40.039,38.574,-12.207
1578400991.753,37.109,40.039,37.598,35.645,-2.930
1578400991.757,42.969,37.598,38.086,37.109,-27.344
1578400991.761,45.410,48.828,36.621,41.504,26.367
1578400991.765,41.504,53.711,33.691,36.621,56.641
1578400991.769,28.320,47.363,34.180,26.367,48.340
1578400991.773,27.832,38.574,38.574,28.809,59.570
1578400991.777,39.551,39.551,39.062,30.762,80.566
1578400991.780,41.992,43.945,44.434,31.250,77.148
1578400991.784,32.715,43.457,49.316,34.668,2.441
1578400991.788,28.320,37.598,43.457,25.391,30.273
1578400991.792,36.621,41.504,41.016,21.973,35.645
1578400991.796,40.039,47.363,38.574,31.738,16.113
1578400991.800,42.969,42.969,32.227,33.203,17.090
1578400991.804,40.527,35.156,30.273,33.203,22.949
1578400991.808,33.691,33.691,35.156,43.457,74.707
1578400991.812,37.598,37.109,39.062,40.039,26.367
1578400991.816,45.410,36.133,37.109,36.621,9.277
1578400991.820,52.246,39.551,38.086,44.922,57.129
1578400991.823,41.016,40.527,36.133,44.434,100.098
1578400991.827,32.227,39.062,37.598,49.316,70.801
1578400991.831,39.062,45.410,39.062,46.875,56.152
1578400991.835,46.387,42.969,28.320,33.691,61.523
1578400991.839,48.828,38.086,27.832,34.180,37.109
1578400991.843,41.016,37.598,38.574,37.109,61.523
1578400991.847,32.715,36.133,38.574,37.598,53.223
1578400991.851,33.691,34.668,31.738,36.133,36.133
1578400991.855,41.992,39.062,35.156,38.086,14.160
1578400991.859,45.410,37.109,43.945,39.551,0.000
1578400991.862,40.527,33.691,44.922,41.016,34.668
1578400991.866,31.250,36.133,40.527,40.527,53.223
1578400991.870,34.180,37.109,39.062,41.992,21.484
1578400991.874,41.504,39.551,35.645,40.527,-7.324
1578400991.878,38.574,32.227,30.762,32.227,34.180
1578400991.882,35.156,23.438,32.227,34.180,55.664
1578400991.886,28.809,32.715,33.691,34.180,62.988
1578400991.890,32.227,36.621,38.086,30.762,66.895
1578400991.894,35.645,36.133,42.480,31.250,47.363
1578400991.898,42.480,43.457,45.898,37.109,57.617
1578400991.902,44.922,43.945,42.969,41.016,46.387
1578400991.905,32.227,33.203,33.691,35.156,6.348
1578400991.909,28.320,28.809,32.227,36.133,5.371
1578400991.913,39.551,35.156,32.715,40.527,32.715
1578400991.917,44.922,40.039,29.785,39.062,0.977
1578400991.921,36.621,37.598,40.527,28.320,-28.320
1578400991.925,30.273,33.203,44.434,28.809,38.574
1578400991.929,30.762,36.621,38.086,37.109,94.727
1578400991.933,32.227,34.668,42.480,32.715,56.641
1578400991.937,35.156,28.809,38.574,30.762,48.828
1578400991.941,28.809,32.227,32.715,34.180,54.688
1578400991.945,23.438,34.668,37.109,31.738,93.262
1578400991.948,24.902,32.715,34.180,28.809,116.211
1578400991.952,30.762,35.156,34.668,28.320,37.598
1578400991.956,41.016,38.086,42.969,33.203,2.930
1578400991.960,41.016,39.062,39.551,41.504,20.020
1578400991.964,41.016,37.598,36.133,43.457,7.324
1578400991.968,32.715,33.691,38.574,39.551,-4.395
1578400991.972,37.109,33.691,38.574,42.480,38.574
1578400991.976,52.734,42.969,31.250,42.480,8.789
1578400991.980,46.875,48.828,24.902,35.645,21.484
1578400991.984,41.992,43.457,26.855,37.598,41.992
1578400991.987,43.945,43.945,29.297,37.598,11.719
1578400991.991,45.410,48.340,28.320,38.086,39.062
1578400991.995,49.316,48.340,30.762,37.109,42.969
1578400991.999,44.922,42.969,31.250,36.133,35.645
1578400992.003,37.109,38.086,28.320,40.039,65.918
1578400992.007,27.344,34.668,33.203,41.504,30.273
1578400992.011,27.832,23.926,38.086,40.039,0.000
1578400992.015,37.109,25.879,40.527,42.969,34.668
1578400992.019,51.270,43.945,45.410,52.246,47.852
1578400992.023,56.152,45.898,45.898,59.570,73.730
1578400992.027,41.016,39.551,40.039,48.828,80.078
1578400992.030,34.180,37.598,37.598,34.668,48.828
1578400992.034,45.410,39.551,35.645,35.645,36.133
1578400992.038,54.199,41.016,34.180,40.039,31.738
1578400992.042,42.480,38.574,43.945,41.016,24.902
1578400992.046,41.504,36.133,44.434,41.016,21.973
1578400992.050,46.875,34.180,37.598,38.574,-11.230
1578400992.054,46.387,36.621,41.016,34.668,7.324
1578400992.058,55.176,40.527,40.039,36.133,44.922
1578400992.062,52.734,38.574,36.133,48.340,50.781
1578400992.066,41.016,38.086,39.062,52.246,58.594
1578400992.070,37.598,41.992,40.039,46.387,57.617
1578400992.073,38.086,41.992,34.180,39.551,56.641
1578400992.077,47.363,46.387,36.621,42.480,63.477
1578400992.081,50.781,48.828,39.062,52.246,29.297
1578400992.085,35.645,41.992,35.156,48.340,-8.789
1578400992.089,26.367,39.062,34.668,44.434,-30.762
1578400992.093,29.785,37.598,37.109,43.945,-30.762
1578400992.097,39.062,41.504,40.527,41.992,-22.461
1578400992.101,41.992,39.551,43.945,46.387,6.348
1578400992.105,37.109,34.180,46.875,48.340,-6.836
1578400992.109,38.574,37.109,50.293,49.316,11.230
1578400992.112,36.621,32.227,46.875,41.016,57.129
1578400992.116,37.109,32.227,41.016,32.715,81.543
1578400992.120,45.898,34.180,41.504,33.691,71.289
1578400992.124,38.086,34.180,41.992,41.992,70.312
1578400992.128,39.551,40.039,41.504,47.852,50.293
1578400992.132,39.551,38.086,37.109,44.922,-3.418
1578400992.136,34.668,30.762,26.367,38.574,5.859
1578400992.140,36.621,38.086,34.180,37.109,23.926
1578400992.144,30.273,42.969,44.434,43.945,20.996
1578400992.148,27.344,39.551,44.434,44.434,35.156
1578400992.152,30.762,38.086,42.480,35.645,36.133
1578400992.155,41.016,36.621,45.898,39.551,22.461
1578400992.159,52.246,38.574,51.758,48.340,5.859
1578400992.163,47.852,37.598,47.852,56.152,31.250
1578400992.167,31.738,35.645,38.574,55.176,99.121
1578400992.171,32.227,43.457,39.062,50.781,75.684
1578400992.175,42.480,47.852,41.016,47.852,45.898
1578400992.179,49.805,46.875,43.457,50.293,21.973
1578400992.183,46.387,43.945,51.758,50.781,-9.277
1578400992.187,32.715,42.969,47.363,39.062,22.949
1578400992.191,37.598,42.969,42.969,36.133,80.566
1578400992.195,42.969,40.527,42.480,29.297,85.938
1578400992.198,40.527,34.180,33.691,29.297,97.168
1578400992.202,41.504,24.902,32.227,41.992,89.844
1578400992.206,35.645,24.414,40.527,45.898,56.641
1578400992.210,31.250,36.621,41.992,36.621,41.016
1578400992.214,25.879,37.109,37.598,26.855,40.527
1578400992.218,32.715,37.598,36.133,33.691,53.223
1578400992.222,41.016,39.551,35.645,42.969,45.898
1578400992.226,27.344,28.320,34.180,36.133,-3.418
1578400992.230,21.973,30.273,27.344,34.668,-18.066
1578400992.234,24.414,34.668,28.320,34.668,42.480
1578400992.237,32.715,27.344,32.227,34.180,10.254
1578400992.241,43.945,26.367,34.180,37.598,-0.977
1578400992.245,40.527,31.250,43.945,44.434,11.719
1578400992.249,31.738,26.855,43.945,42.969,6.836
1578400992.253,33.203,29.297,37.109,35.156,-10.742
1578400992.257,38.574,37.598,36.133,36.133,8.789
1578400992.261,39.062,35.645,38.086,45.898,14.648
1578400992.265,36.133,33.691,35.156,45.410,-15.625
1578400992.269,32.715,32.227,34.180,35.645,19.043
1578400992.273,45.898,23.926,32.715,47.363,39.551
1578400992.277,49.805,20.508,36.621,53.711,42.480
1578400992.280,34.668,38.086,46.387,39.062,68.359
1578400992.284,30.273,56.641,58.594,28.320,43.457
1578400992.288,25.879,54.199,57.129,28.320,31.738
1578400992.292,0.488,43.945,56.152,3.418,56.152
1578400992.296,-20.020,38.574,56.641,-29.297,49.805
1578400992.300,-20.020,39.551,50.293,-22.949,42.969
1578400992.304,-30.762,54.688,77.148,-27.344,91.797
1578400992.308,-56.641,66.895,81.055,-49.316,120.605
1578400992.312,-73.242,73.242,76.660,-62.012,73.242
1578400992.316,-89.355,81.055,87.891,-92.285,54.688
1578400992.320,-100.586,84.961,77.148,-104.980,62.012
1578400992.323,-114.746,86.914,95.215,-111.816,89.355
1578400992.327,-137.207,89.355,114.258,-123.047,54.199
1578400992.331,-143.066,98.633,128.906,-123.047,-0.977
1578400992.335,-161.621,93.750,126.465,-144.531,2.441
1578400992.339,-162.109,84.961,122.070,-151.855,26.367
1578400992.343,-160.156,84.473,129.883,-152.344,30.273
1578400992.347,-164.551,82.520,136.230,-150.391,5.859
1578400992.351,-153.809,75.195,141.602,-143.555,16.602
1578400992.355,-137.207,68.848,131.348,-139.648,12.207
1578400992.359,-122.070,70.801,127.441,-122.559,7.812
1578400992.362,-125.977,66.406,121.582,-112.793,61.523
1578400992.366,-119.629,54.688,112.305,-90.820,41.504
1578400992.370,-91.309,54.688,108.887,-66.895,20.020
1578400992.374,-80.078,53.223,100.586,-74.219,27.344
1578400992.378,-67.383,49.316,90.820,-65.918,1.953
1578400992.382,-47.852,45.410,73.242,-51.270,-9.277
1578400992.386,-33.691,34.180,62.988,-34.668,11.719
1578400992.390,-20.020,26.367,52.734,-16.602,-16.113
1578400992.394,-7.812,19.531,36.133,-19.043,-32.227
1578400992.398,13.184,18.066,36.133,0.977,22.949
1578400992.402,21.973,29.297,31.738,22.461,20.508
1578400992.405,22.949,25.879,23.438,25.879,-6.836
1578400992.409,27.344,13.672,23.926,41.504,10.254
1578400992.413,38.086,5.859,19.043,50.781,47.363
1578400992.417,57.617,19.043,12.695,51.758,96.191
1578400992.421,63.965,26.855,8.301,56.152,92.773
1578400992.425,61.523,13.184,2.930,62.012,32.715
1578400992.429,63.477,8.789,8.789,65.430,25.879
1578400992.433,70.801,11.230,7.812,62.500,69.824
1578400992.437,80.566,16.602,1.953,62.988,73.730
1578400992.441,85.449,13.184,5.859,77.148,29.297
1578400992.445,80.566,9.766,3.418,85.449,8.301
1578400992.448,78.125,12.695,3.418,86.914,22.461
1578400992.452,77.148,12.695,3.906,83.008,46.387
1578400992.456,78.613,12.695,0.977,71.777,15.137
1578400992.460,87.891,17.578,-0.977,74.219,41.016
1578400992.464,89.355,20.508,-0.977,75.684,67.383
1578400992.468,88.379,18.555,-3.906,79.102,34.180
1578400992.472,96.191,26.367,-0.977,83.984,8.789
1578400992.476,101.074,32.715,7.324,83.496,14.648
1578400992.480,105.469,25.879,1.465,92.285,38.574
1578400992.484,103.027,25.391,-0.977,104.492,35.156
1578400992.487,98.145,28.320,1.953,101.074,70.801
1578400992.491,102.051,32.227,4.883,91.797,52.246
1578400992.495,106.445,31.738,3.906,79.590,29.297
1578400992.499,105.469,23.926,2.441,77.637,44.434
1578400992.503,91.797,17.090,0.977,85.938,54.199
1578400992.507,82.520,22.461,5.371,85.938,17.578
1578400992.511,87.402,28.809,8.789,78.613,35.645
1578400992.515,90.820,28.809,7.324,77.148,89.355
1578400992.519,93.262,35.645,14.160,85.449,33.203
1578400992.523,86.426,33.691,16.602,82.520,58.594
1578400992.527,71.289,28.320,15.137,73.730,119.629
1578400992.530,71.777,30.762,16.602,72.754,75.684
1578400992.534,78.613,30.273,13.672,64.453,-26.855
1578400992.538,86.914,29.297,12.695,63.965,-15.137
1578400992.542,87.891,32.715,19.043,74.707,40.527
1578400992.546,81.543,33.691,24.902,85.938,7.324
1578400992.550,75.195,32.227,15.625,81.543,27.832
1578400992.554,67.383,33.691,7.324,64.453,80.566
1578400992.558,68.848,32.715,15.137,61.523,32.715
1578400992.562,67.871,34.668,23.438,65.430,-27.344
1578400992.566,57.129,35.156,25.879,62.012,15.137
1578400992.570,51.270,36.133,25.879,65.430,30.273
1578400992.573,57.617,41.016,29.785,62.012,44.922
1578400992.577,63.965,29.785,26.367,60.059,50.781
1578400992.581,70.801,18.066,20.020,64.453,21.973
1578400992.585,52.246,28.320,21.484,49.805,24.902
1578400992.589,37.109,39.551,26.367,41.016,50.781
1578400992.593,50.293,39.551,33.691,48.340,37.598
1578400992.597,54.688,41.504,32.227,43.457,-4.395
1578400992.601,59.570,49.316,24.902,44.434,-34.668
1578400992.605,59.082,48.340,25.391,56.641,-28.320
1578400992.609,47.363,39.062,24.902,59.570,-22.949
1578400992.612,61.035,36.621,22.461,52.734,14.648
1578400992.616,69.336,36.621,20.996,51.270,58.594
1578400992.620,69.824,40.039,19.531,58.105,52.246
1578400992.624,69.824,47.363,27.832,72.266,83.984
1578400992.628,54.199,43.457,29.297,65.918,37.109
1578400992.632,54.688,41.016,26.855,62.500,-31.250
1578400992.636,73.242,47.852,34.180,73.730,-6.836
1578400992.640,71.777,43.457,29.297,61.523,26.367
1578400992.644,60.547,40.039,21.973,48.828,61.035
1578400992.648,52.246,43.457,23.926,46.387,50.781
1578400992.652,48.828,43.945,26.855,43.945,1.465
1578400992.655,59.082,47.363,25.879,45.898,-46.875
1578400992.659,62.988,53.223,28.809,51.758,-27.344
1578400992.663,46.387,44.434,29.297,53.711,58.105
1578400992.667,34.180,36.621,26.855,46.387,81.055
1578400992.671,37.598,33.203,29.297,34.180,21.484
1578400992.675,38.574,36.621,32.715,30.762,0.000
1578400992.679,41.992,41.504,35.156,33.691,64.453
1578400992.683,46.875,41.504,32.715,43.457,68.359
1578400992.687,47.852,45.410,30.273,53.711,62.012
1578400992.691,40.039,42.480,29.297,40.039,54.199
1578400992.695,40.527,39.062,31.738,30.273,11.719
1578400992.698,52.246,34.668,36.133,36.133,27.344
1578400992.702,47.852,27.344,41.016,47.363,38.574
1578400992.706,43.457,28.809,42.969,55.664,-20.996
1578400992.710,47.363,36.133,40.527,54.688,5.859
1578400992.714,51.758,39.062,43.945,50.293,-25.391
1578400992.718,51.758,41.016,40.039,39.062,0.488
1578400992.722,48.828,39.551,33.691,38.086,74.219
1578400992.726,40.527,41.504,34.668,48.340,30.273
1578400992.730,29.785,35.156,31.250,41.504,38.086
1578400992.734,40.527,28.320,34.668,39.062,3.418
1578400992.737,48.340,30.273,38.574,50.293,27.344
1578400992.741,47.852,36.133,39.551,62.012,101.562
1578400992.745,41.992,31.738,40.527,58.105,81.055
1578400992.749,33.203,25.879,32.715,46.875,27.344
1578400992.753,43.457,36.133,23.926,39.062,15.137
1578400992.757,58.105,31.738,30.762,43.945,48.828
1578400992.761,54.688,29.297,41.992,63.477,64.453
1578400992.765,32.227,40.527,42.480,52.246,11.230
1578400992.769,18.066,42.480,47.852,34.180,3.906
1578400992.773,18.555,37.109,46.387,21.973,54.688
1578400992.777,18.555,32.715,41.504,13.184,41.016
1578400992.780,20.020,36.621,47.363,24.414,-3.418
1578400992.784,11.719,37.598,52.246,35.156,27.344
1578400992.788,10.742,29.785,51.270,39.551,69.824
1578400992.792,10.742,24.414,49.805,30.762,60.059
1578400992.796,11.230,30.273,49.805,23.438,42.480
1578400992.800,23.926,35.645,51.270,21.973,70.801
1578400992.804,19.531,32.227,47.363,23.926,39.551
1578400992.808,11.230,26.367,42.969,32.715,5.371
1578400992.812,16.602,30.762,41.016,34.180,17.578
1578400992.816,23.438,37.109,42.480,35.156,6.348
1578400992.820,27.344,35.645,37.598,41.992,45.898
1578400992.823,33.203,32.227,36.621,46.387,32.227
1578400992.827,29.785,36.621,44.434,50.293,37.109
1578400992.831,22.949,39.551,44.434,45.898,32.715
1578400992.835,32.227,37.109,44.434,42.969,-9.277
1578400992.839,40.039,44.922,47.363,49.316,39.551
1578400992.843,34.668,48.340,46.875,59.570,49.316
1578400992.847,30.762,48.828,46.875,61.523,77.148
1578400992.851,32.227,46.875,41.992,57.617,63.477
1578400992.855,34.180,41.992,35.645,50.293,42.480
1578400992.859,44.922,41.992,37.109,48.828,40.039
1578400992.862,48.828,39.551,37.109,51.270,25.879
1578400992.866,41.992,34.668,37.598,50.781,69.824
1578400992.870,41.016,36.133,38.086,42.480,54.199
1578400992.874,45.898,41.504,38.086,36.621,0.977
1578400992.878,45.410,40.039,40.039,35.645,0.488
1578400992.882,41.992,39.551,36.621,40.039,24.414
1578400992.886,39.062,41.992,31.250,50.293,9.766
1578400992.890,34.668,44.434,29.297,44.434,6.836
1578400992.894,44.922,51.270,30.273,30.762,39.551
1578400992.898,53.223,47.852,30.273,30.762,36.133
1578400992.902,51.758,42.969,27.832,39.062,15.625
1578400992.905,53.223,50.781,36.133,47.852,23.926
1578400992.909,45.410,49.805,40.039,49.316,38.574
1578400992.913,39.062,41.016,29.297,38.086,16.602
1578400992.917,45.898,37.109,29.297,41.992,43.457
1578400992.921,45.898,38.086,33.691,48.340,57.129
1578400992.925,36.133,45.410,31.250,41.992,67.871
1578400992.929,28.809,46.875,35.645,42.480,35.645
1578400992.933,27.832,38.574,35.156,37.598,43.945
1578400992.937,32.715,31.738,32.715,33.691,55.176
1578400992.941,40.527,34.180,40.039,35.645,58.105
1578400992.945,38.574,37.109,41.016,40.039,33.203
1578400992.948,33.203,39.062,36.133,40.039,5.859
1578400992.952,37.598,41.016,32.715,38.086,26.855
1578400992.956,47.852,47.363,35.645,38.086,72.754
1578400992.960,47.852,44.434,33.691,35.645,110.840
1578400992.964,38.574,36.133,32.715,38.086,69.824
1578400992.968,30.762,33.691,33.203,39.551,27.832
1578400992.972,30.273,32.715,35.645,38.086,33.203
1578400992.976,41.016,36.621,37.109,38.086,32.715
1578400992.980,48.340,37.109,36.133,41.016,3.418
1578400992.984,41.504,36.621,37.109,44.434,0.000
1578400992.987,31.250,34.668,35.645,42.969,20.508
1578400992.991,25.879,35.156,37.109,42.969,12.207
1578400992.995,32.715,39.062,35.156,44.922,-12.207
1578400992.999,38.086,37.109,30.762,46.875,30.762
1578400993.003,30.762,34.180,36.621,51.270,52.246
1578400993.007,32.715,41.016,39.551,51.270,-27.832
1578400993.011,34.180,43.945,35.645,42.480,-3.906
1578400993.015,34.180,38.574,32.715,27.832,25.879
1578400993.019,42.969,37.109,24.902,19.531,-38.574
1578400993.023,47.363,40.039,23.438,26.855,-48.828
1578400993.027,41.504,43.457,28.809,33.691,-22.949
1578400993.030,36.621,42.969,36.621,38.574,7.324
1578400993.034,46.387,42.480,45.410,38.086,26.367
1578400993.038,48.828,39.062,41.016,32.227,-6.836
1578400993.042,37.598,40.527,33.691,37.598,1.953
1578400993.046,38.574,42.969,28.320,42.969,18.066
1578400993.050,45.410,40.039,36.133,41.504,25.391
1578400993.054,42.969,46.875,43.457,42.480,85.938
1578400993.058,44.434,53.711,34.668,34.180,64.941
1578400993.062,42.480,48.340,36.133,33.203,47.363
1578400993.066,42.480,41.992,41.992,45.898,95.703
1578400993.070,45.410,35.645,42.480,56.152,71.777
1578400993.073,44.922,32.715,45.410,57.129,48.340
1578400993.077,39.551,37.598,46.387,42.969,42.480
1578400993.081,31.738,38.574,43.945,38.574,34.180
1578400993.085,29.785,38.086,47.363,49.805,33.203
1578400993.089,20.996,32.227,47.852,44.434,4.395
1578400993.093,13.672,28.809,41.016,24.414,16.113
1578400993.097,30.762,37.598,42.969,22.461,17.578
1578400993.101,42.969,44.434,42.480,36.621,-32.715
1578400993.105,27.832,37.598,36.133,41.992,-18.555
1578400993.109,25.391,39.551,35.645,50.781,7.324
1578400993.112,38.574,41.504,36.133,48.340,31.738
1578400993.116,44.434,34.180,31.250,27.344,73.242
1578400993.120,48.340,38.574,31.738,25.391,88.379
1578400993.124,41.016,37.109,34.668,37.109,62.012
1578400993.128,31.250,35.156,35.645,31.738,22.461
1578400993.132,27.832,37.598,38.574,24.902,13.672
1578400993.136,39.551,37.109,39.551,29.297,34.180
1578400993.140,49.805,38.574,39.062,39.551,39.551
1578400993.144,40.527,33.203,34.180,48.828,46.387
1578400993.148,27.344,33.691,32.715,45.898,18.066
1578400993.152,30.273,35.156,36.133,40.527,17.090
1578400993.155,41.016,25.879,33.691,34.180,77.637
1578400993.159,45.898,34.180,32.715,34.668,69.824
1578400993.163,48.828,48.340,36.621,49.316,50.781
1578400993.167,46.875,45.410,36.621,57.129,56.152
1578400993.171,34.668,38.574,36.133,41.016,50.293
1578400993.175,36.133,37.598,37.109,34.180,68.359
1578400993.179,39.062,35.156,37.109,34.668,61.523
1578400993.183,36.621,38.574,40.527,37.598,45.898
1578400993.187,31.250,41.992,41.016,43.457,39.062
1578400993.191,28.320,42.480,38.574,41.016,52.734
1578400993.195,34.180,40.039,28.320,26.855,51.758
1578400993.198,43.945,34.668,23.438,22.461,46.875
1578400993.202,45.410,36.133,26.855,29.785,71.777
1578400993.206,31.738,30.762,28.809,28.809,54.688
1578400993.210,30.273,29.297,32.715,30.762,47.852
1578400993.214,38.086,37.598,36.133,35.645,34.180
1578400993.218,45.898,47.852,44.434,46.875,40.039
1578400993.222,41.504,44.434,37.109,52.246,0.488
1578400993.226,23.438,31.738,26.367,43.457,12.695
1578400993.230,29.785,29.785,33.203,40.039,58.594
1578400993.234,39.062,34.180,30.762,26.855,58.594
1578400993.237,50.781,39.551,28.320,22.949,60.059
1578400993.241,64.453,41.504,36.621,40.039,19.531
1578400993.245,56.152,40.039,36.133,41.992,26.855
1578400993.249,37.109,39.551,38.086,48.828,57.617
1578400993.253,25.879,39.551,41.992,45.898,60.547
1578400993.257,34.668,33.691,36.133,41.992,28.809
1578400993.261,44.922,33.203,38.574,40.039,47.852
1578400993.265,40.527,38.574,43.457,29.297,96.680
1578400993.269,35.645,38.086,40.039,28.809,61.523
1578400993.273,35.156,38.086,39.551,22.949,39.062
1578400993.277,48.828,38.086,40.039,30.762,38.086
1578400993.280,54.199,45.410,43.457,46.387,40.039
1578400993.284,42.480,41.504,46.875,44.922,36.133
1578400993.288,35.156,30.273,41.504,42.969,46.875
1578400993.292,34.668,37.109,40.039,43.945,51.758
1578400993.296,39.062,33.203,41.504,39.062,-11.230
1578400993.300,45.410,28.320,39.551,36.621,-3.418
1578400993.304,49.316,32.715,41.016,46.387,14.160
1578400993.308,41.504,38.086,40.039,49.316,-34.180
1578400993.312,32.227,38.574,34.668,36.133,6.836
1578400993.316,41.016,36.621,32.715,32.227,30.762
1578400993.320,55.176,41.504,32.227,43.945,-13.672
1578400993.323,52.734,40.527,33.203,47.363,37.598
1578400993.327,38.574,32.715,33.203,47.363,41.016
1578400993.331,35.645,30.273,30.762,40.527,15.625
1578400993.335,44.922,39.551,33.691,26.855,-1.953
1578400993.339,43.457,43.945,34.180,22.949,-19.043
1578400993.343,36.133,39.551,35.645,29.785,46.875
1578400993.347,32.715,36.133,37.598,40.039,65.430
1578400993.351,33.691,38.574,36.621,33.203,36.621
1578400993.355,33.203,42.480,30.273,20.996,0.977
1578400993.359,49.316,50.293,33.691,29.297,1.465
1578400993.362,53.711,48.340,41.992,34.668,-21.484
1578400993.366,31.738,34.668,32.715,31.738,-1.953
1578400993.370,29.785,33.691,33.691,43.457,59.570
1578400993.374,38.086,37.598,41.016,49.316,51.270
1578400993.378,44.434,41.016,39.062,46.387,73.242
1578400993.382,42.480,40.039,38.086,45.898,54.688
1578400993.386,40.527,41.016,43.457,54.688,33.691
1578400993.390,32.227,40.039,45.410,47.363,55.176
1578400993.394,31.738,33.203,40.039,33.691,62.012
1578400993.398,43.945,30.762,38.574,34.668,106.934
1578400993.402,46.387,37.109,38.574,37.598,87.402
1578400993.405,46.875,41.504,42.969,41.992,16.113
1578400993.409,41.992,39.062,46.387,33.691,18.555
1578400993.413,41.016,36.621,38.574,25.391,64.453
1578400993.417,47.852,40.527,37.109,33.691,58.594
1578400993.421,48.828,31.250,36.133,38.574,1.465
1578400993.425,35.645,21.973,37.109,32.715,-15.137
1578400993.429,30.762,24.414,36.133,33.203,4.883
1578400993.433,37.109,28.809,31.250,39.551,16.113
1578400993.437,37.109,31.250,31.738,39.062,13.672
1578400993.441,40.527,33.691,36.621,40.527,28.320
1578400993.445,37.598,37.109,37.109,47.363,68.848
1578400993.448,27.344,31.250,38.086,29.785,75.195
1578400993.452,26.855,28.320,35.645,20.508,53.711
1578400993.456,31.250,35.156,32.227,38.574,43.457
1578400993.460,41.992,41.504,38.574,51.270,19.531
1578400993.464,49.805,40.527,40.527,58.105,7.324
1578400993.468,34.180,36.133,49.316,44.434,9.766
1578400993.472,20.508,42.480,56.641,22.949,54.688
1578400993.476,27.832,44.434,49.805,24.902,68.359
1578400993.480,37.598,32.715,39.551,31.250,32.227
1578400993.484,37.109,30.762,35.156,32.715,18.555
1578400993.487,27.832,35.645,29.297,39.062,28.320
1578400993.491,22.461,33.691,30.762,38.574,20.508
1578400993.495,32.227,31.738,37.109,25.879,40.039
1578400993.499,48.340,39.551,44.922,40.039,69.824
1578400993.503,41.016,38.086,46.875,45.410,17.578
1578400993.507,33.203,32.227,41.504,32.715,28.809
1578400993.511,33.691,34.668,39.551,35.645,35.645
1578400993.515,39.062,35.156,40.039,38.086,7.324
1578400993.519,50.293,34.668,41.504,41.016,9.277
1578400993.523,51.270,38.574,37.109,42.480,32.715
1578400993.527,43.457,35.645,35.156,39.062,58.594
1578400993.530,36.133,34.668,36.133,33.203,48.340
1578400993.534,39.062,35.156,40.527,34.668,7.812
1578400993.538,45.410,33.691,41.016,37.598,9.766
1578400993.542,41.016,38.086,29.297,33.691,54.688
1578400993.546,37.598,37.598,27.344,38.574,70.312
1578400993.550,34.668,34.180,34.180,42.480,59.570
1578400993.554,41.016,38.086,35.645,46.387,64.453
1578400993.558,45.410,43.945,31.250,50.781,-5.371
1578400993.562,37.109,41.016,24.902,52.246,-30.273
1578400993.566,33.203,41.016,25.391,49.805,-1.953
1578400993.570,32.227,40.039,32.715,37.109,4.395
1578400993.573,35.156,42.480,34.668,22.461,34.668
1578400993.577,36.133,49.316,26.367,16.113,58.594
1578400993.581,41.504,43.457,25.879,27.832,44.922
1578400993.585,43.945,39.551,27.344,39.062,43.945
1578400993.589,34.668,46.387,30.273,41.504,45.410
1578400993.593,28.809,45.410,34.668,38.086,16.113
1578400993.597,39.062,37.109,28.320,27.832,3.906
1578400993.601,46.875,39.062,28.809,28.809,27.832
1578400993.605,35.645,39.551,34.180,34.668,22.949
1578400993.609,32.715,35.645,40.527,40.039,3.418
1578400993.612,33.691,36.621,39.551,38.086,21.973
1578400993.616,41.016,38.086,33.203,30.762,44.922
1578400993.620,52.734,41.992,38.574,30.762,22.949
1578400993.624,43.457,43.457,36.133,33.203,60.059
1578400993.628,33.203,36.621,28.809,41.016,65.918
1578400993.632,33.203,30.762,35.645,40.039,-7.324
1578400993.636,34.668,30.762,40.527,31.250,31.738
1578400993.640,42.969,33.691,41.016,29.785,39.062
1578400993.644,52.246,43.945,47.852,41.504,66.895
1578400993.648,54.199,57.129,50.781,54.199,95.703
1578400993.652,30.762,48.828,37.598,34.668,52.246
1578400993.655,29.785,39.062,45.898,33.691,14.648
1578400993.659,35.156,45.898,47.363,39.062,25.391
1578400993.663,27.344,51.758,30.273,28.809,38.086
1578400993.667,20.996,52.734,37.598,19.043,3.418
1578400993.671,-2.441,54.688,43.457,0.488,0.977
1578400993.675,-11.719,55.176,55.176,-20.508,45.898
1578400993.679,-19.531,70.801,62.500,-47.363,45.898
1578400993.683,-42.480,86.426,52.246,-66.895,10.254
1578400993.687,-62.988,83.984,58.594,-74.219,43.457
1578400993.691,-80.566,86.426,65.918,-89.844,15.625
1578400993.695,-83.496,97.168,71.777,-99.609,14.648
1578400993.698,-92.773,109.863,78.125,-119.629,76.660
1578400993.702,-108.398,110.840,77.637,-127.930,63.965
1578400993.706,-111.328,113.281,80.566,-123.535,57.617
1578400993.710,-123.047,116.211,84.473,-131.836,61.523
1578400993.714,-101.562,124.023,78.613,-125.488,41.504
1578400993.718,-85.938,127.441,70.801,-131.836,20.508
1578400993.722,-81.055,123.047,64.941,-134.277,25.879
1578400993.726,-86.426,123.047,59.570,-133.789,124.512
1578400993.730,-95.215,118.164,64.941,-128.906,100.586
1578400993.734,-79.102,114.746,68.848,-108.398,22.949
1578400993.737,-77.637,106.934,61.523,-108.398,41.016
1578400993.741,-64.941,96.191,53.711,-102.051,3.418
1578400993.745,-40.527,95.703,44.434,-78.613,-34.668
1578400993.749,-46.875,76.660,49.805,-63.965,23.438
1578400993.753,-33.203,56.152,47.852,-49.805,70.312
1578400993.757,-8.301,54.688,35.156,-35.156,48.340
1578400993.761,3.418,51.270,37.598,-15.137,38.086
1578400993.765,14.160,40.039,34.668,0.000,50.781
1578400993.769,19.043,28.320,23.926,10.742,61.523
1578400993.773,22.461,23.926,20.508,20.508,60.059
1578400993.777,45.410,21.484,20.996,29.297,33.203
1578400993.780,56.152,13.184,12.695,32.227,24.414
1578400993.784,57.617,11.230,9.277,46.387,22.461
1578400993.788,68.848,6.348,13.184,64.941,47.363
1578400993.792,62.012,-2.441,8.301,58.594,16.602
1578400993.796,73.730,-1.953,11.719,65.918,-10.742
1578400993.800,93.750,4.395,14.160,80.566,14.160
1578400993.804,86.426,7.812,3.418,74.707,43.945
1578400993.808,84.473,5.859,-2.441,70.312,44.434
1578400993.812,84.473,2.441,2.930,72.754,52.734
1578400993.816,86.426,6.348,5.859,75.684,35.645
1578400993.820,102.539,7.812,0.977,82.520,27.832
1578400993.823,105.469,3.418,2.441,88.867,26.855
1578400993.827,96.680,3.906,9.277,96.191,37.598
1578400993.831,87.402,6.836,1.465,89.844,34.668
1578400993.835,92.773,7.324,3.418,90.332,17.578
1578400993.839,108.398,9.766,9.277,98.145,-4.395
1578400993.843,104.004,9.766,7.812,93.750,8.301
1578400993.847,103.516,4.395,8.301,96.680,37.598
1578400993.851,97.168,4.395,9.277,98.145,-19.531
1578400993.855,96.680,7.324,16.602,101.562,3.906
1578400993.859,110.840,13.184,20.508,98.145,-6.348
1578400993.862,106.445,17.578,20.996,101.074,-4.395
1578400993.866,99.609,17.578,20.996,104.980,48.340
1578400993.870,96.680,15.625,18.066,93.262,33.203
1578400993.874,96.680,16.113,16.113,92.285,-1.953
1578400993.878,104.492,24.414,19.531,98.145,2.930
1578400993.882,95.215,25.879,23.926,96.680,31.250
1578400993.886,82.031,24.902,25.879,92.285,49.316
1578400993.890,82.031,25.879,26.367,100.586,56.152
1578400993.894,76.660,27.344,18.066,97.656,1.953
1578400993.898,78.125,24.902,14.648,78.125,-48.340
1578400993.902,93.262,22.461,16.602,80.566,-25.391
1578400993.905,91.797,27.344,20.508,80.566,31.738
1578400993.909,81.543,29.297,27.832,76.172,98.633
1578400993.913,79.102,32.715,30.273,80.078,72.266
1578400993.917,85.449,31.738,23.926,74.219,92.285
1578400993.921,84.961,28.320,18.555,71.289,66.406
1578400993.925,74.707,29.785,20.020,78.613,43.457
1578400993.929,62.988,30.273,16.602,72.266,71.777
1578400993.933,65.430,25.879,12.695,64.941,44.922
1578400993.937,77.637,26.855,17.090,72.266,25.391
1578400993.941,82.520,32.715,23.926,76.172,34.668
1578400993.945,79.102,40.039,22.949,73.242,68.848
1578400993.948,62.988,34.668,20.508,65.430,53.223
1578400993.952,53.223,26.855,25.391,46.875,54.688
1578400993.956,59.570,32.227,27.344,41.992,89.355
1578400993.960,65.430,32.715,26.855,46.875,71.777
1578400993.964,65.430,30.762,28.320,51.270,-3.906
1578400993.968,46.387,27.344,29.785,59.082,-19.531
1578400993.972,37.598,27.344,30.762,60.059,11.719
1578400993.976,56.641,36.621,35.645,62.500,10.254
1578400993.980,61.035,38.086,32.227,59.570,3.418
1578400993.984,61.523,39.551,25.879,54.199,11.719
1578400993.987,52.246,37.109,27.832,54.688,35.156
1578400993.991,39.062,31.250,31.738,47.852,22.461
1578400993.995,45.898,34.668,30.273,17.090,4.883
1578400993.999,49.805,36.621,35.156,17.090,5.859
1578400994.003,48.340,39.551,36.133,38.574,17.578
1578400994.007,51.270,40.039,30.762,45.898,31.738
1578400994.011,38.086,31.250,26.855,35.645,-12.207
1578400994.015,26.855,24.902,34.180,24.902,7.812
1578400994.019,44.922,20.020,42.969,47.363,33.203
1578400994.023,63.965,26.367,32.715,56.641,17.578
1578400994.027,61.035,43.457,26.367,46.387,52.246
1578400994.030,36.133,48.340,27.832,33.691,37.109
1578400994.034,31.250,39.062,20.508,20.020,37.109
1578400994.038,43.945,36.621,19.043,24.902,35.645
1578400994.042,52.734,39.062,19.043,32.715,54.199
1578400994.046,48.340,39.551,17.090,33.203,62.988
1578400994.050,30.762,35.156,19.531,33.691,43.945
1578400994.054,32.227,39.062,21.484,25.879,-2.930
1578400994.058,46.387,49.316,23.438,30.273,-20.996
1578400994.062,44.922,54.688,27.344,38.086,11.719
1578400994.066,30.762,52.734,25.391,34.180,59.082
1578400994.070,38.086,47.363,16.602,43.945,70.801
1578400994.073,45.410,47.852,14.160,43.457,55.664
1578400994.077,58.105,44.434,15.625,24.414,58.105
1578400994.081,71.289,43.457,13.672,16.602,58.105
1578400994.085,62.500,47.363,14.160,24.414,65.430
1578400994.089,55.664,46.387,19.531,38.086,81.543
1578400994.093,63.477,46.875,26.855,47.363,77.637
1578400994.097,72.754,44.434,24.414,47.852,28.320
1578400994.101,74.707,38.086,18.555,41.504,23.438
1578400994.105,70.801,36.133,27.832,52.246,59.570
1578400994.109,58.105,40.527,34.180,62.012,51.758
1578400994.112,47.852,37.109,36.621,51.270,6.836
1578400994.116,52.246,34.668,37.109,42.969,13.184
1578400994.120,62.988,43.945,36.621,46.387,1.465
1578400994.124,64.453,42.480,36.621,48.340,38.086
1578400994.128,56.152,39.062,31.250,44.922,102.051
1578400994.132,41.016,35.645,32.227,39.062,49.316
1578400994.136,50.293,34.668,30.762,36.133,38.574
1578400994.140,72.266,41.016,36.621,44.922,33.203
1578400994.144,64.453,39.551,42.480,53.223,12.695
1578400994.148,62.500,41.992,41.016,61.035,83.496
1578400994.152,62.988,42.969,42.480,62.988,64.453
1578400994.155,53.711,36.133,33.691,43.945,-4.883
1578400994.159,64.453,34.668,24.414,36.133,6.348
1578400994.163,62.988,37.109,35.645,44.922,7.324
1578400994.167,49.316,27.832,42.969,51.758,43.945
1578400994.171,40.527,22.461,32.715,52.734,42.969
1578400994.175,39.551,29.785,33.203,55.664,43.457
1578400994.179,55.176,37.109,39.551,55.664,55.664
1578400994.183,58.594,34.668,36.621,49.805,20.996
1578400994.187,47.852,30.273,32.715,40.039,48.340
1578400994.191,30.762,27.344,35.645,38.086,65.430
1578400994.195,40.527,33.691,41.992,42.969,67.383
1578400994.198,60.547,39.062,41.992,33.203,18.066
1578400994.202,60.547,39.062,37.109,40.039,-10.742
1578400994.206,44.922,36.621,26.855,46.387,26.367
1578400994.210,26.367,32.715,23.438,33.691,55.176
1578400994.214,24.902,26.367,32.227,33.203,27.832
1578400994.218,33.203,24.414,37.598,37.598,-8.789
1578400994.222,34.668,38.086,34.668,34.668,3.418
1578400994.226,34.668,41.016,34.180,38.086,-4.395
1578400994.230,32.715,41.504,38.574,39.062,29.785
1578400994.234,30.273,38.574,36.133,37.109,68.359
1578400994.237,46.387,39.062,35.645,34.668,15.625
1578400994.241,50.293,48.828,40.039,37.598,-7.812
1578400994.245,45.898,38.574,37.109,40.039,0.000
1578400994.249,58.594,41.992,36.133,46.875,46.875
1578400994.253,64.453,40.039,44.922,63.477,79.590
1578400994.257,49.805,26.367,49.316,54.199,53.711
1578400994.261,28.809,33.203,53.223,33.691,40.039
1578400994.265,12.695,38.086,52.734,39.062,51.270
1578400994.269,8.789,38.574,49.805,45.410,50.293
1578400994.273,17.090,37.598,50.781,38.086,44.434
1578400994.277,25.391,34.180,51.758,18.066,61.523
1578400994.280,19.531,32.227,60.059,10.254,53.223
1578400994.284,16.602,28.320,62.500,19.043,37.598
1578400994.288,11.230,30.762,59.570,31.250,33.691
1578400994.292,3.906,36.133,60.059,34.180,13.184
1578400994.296,0.488,29.297,55.176,28.320,53.711
1578400994.300,9.766,29.297,48.828,26.367,95.703
1578400994.304,26.367,29.297,43.457,22.461,50.781
1578400994.308,17.090,27.832,49.805,26.855,16.602
1578400994.312,15.625,29.297,56.152,29.785,29.297
1578400994.316,32.715,26.367,45.898,31.250,24.414
1578400994.320,32.227,27.832,44.922,33.691,22.949
1578400994.323,38.574,34.668,45.410,41.016,66.406
1578400994.327,37.598,35.156,44.434,51.270,63.477
1578400994.331,27.344,31.738,47.363,47.852,45.898
1578400994.335,29.297,34.180,46.387,46.387,73.730
1578400994.339,41.992,36.621,47.363,45.410,51.758
1578400994.343,48.340,38.086,43.945,48.828,-8.789
1578400994.347,39.551,37.109,36.133,58.594,-42.480
1578400994.351,28.320,28.320,33.691,55.664,-32.227
1578400994.355,22.949,32.715,36.133,55.664,-1.465
1578400994.359,39.551,36.133,40.527,63.477,-18.555
1578400994.362,51.758,32.227,42.969,56.641,-8.301
1578400994.366,41.504,22.461,42.969,45.410,9.277
1578400994.370,29.785,20.996,36.621,39.062,67.871
1578400994.374,28.320,33.691,33.691,36.133,83.008
1578400994.378,45.410,37.109,37.109,43.945,0.000
1578400994.382,44.434,35.645,36.133,47.852,37.109
1578400994.386,42.969,38.574,37.598,46.387,25.391
1578400994.390,39.551,41.016,43.457,55.664,48.828
1578400994.394,31.250,34.180,41.016,58.594,88.379
1578400994.398,40.039,31.250,38.574,46.875,42.969
1578400994.402,44.922,36.133,41.016,43.457,23.926
1578400994.405,46.875,39.062,39.062,47.363,29.297
1578400994.409,33.691,33.691,36.133,48.828,35.156
1578400994.413,33.203,31.738,43.945,48.828,-8.789
1578400994.417,36.621,36.133,45.410,42.480,-0.977
1578400994.421,33.691,39.062,32.715,36.621,20.996
1578400994.425,45.410,36.621,34.180,39.551,-22.461
1578400994.429,46.875,35.645,37.109,44.434,8.301
1578400994.433,43.457,37.598,37.598,44.434,27.344
1578400994.437,48.340,37.598,39.062,36.133,14.648
1578400994.441,64.453,46.875,43.945,34.668,39.551
1578400994.445,52.734,41.992,45.410,31.250,70.801
1578400994.448,29.785,32.715,39.062,29.785,106.445
1578400994.452,33.203,38.574,34.180,31.250,90.332
1578400994.456,36.133,41.992,37.598,38.086,66.895
1578400994.460,44.434,45.410,42.969,43.945,28.809
1578400994.464,49.316,49.316,38.086,42.480,-25.879
1578400994.468,46.875,49.316,41.016,49.316,-2.441
1578400994.472,43.945,48.340,48.340,49.316,61.035
1578400994.476,39.551,43.945,41.504,27.832,81.543
1578400994.480,37.598,41.992,33.203,16.602,45.898
1578400994.484,32.227,34.180,33.203,21.973,21.484
1578400994.487,30.762,36.621,38.574,34.180,54.199
1578400994.491,37.598,47.363,38.574,36.133,49.316
1578400994.495,34.180,44.434,37.109,21.484,67.383
1578400994.499,41.992,41.992,36.133,38.574,87.402
1578400994.503,59.082,50.293,35.156,44.922,46.875
1578400994.507,35.645,49.316,33.691,26.367,39.551
1578400994.511,21.973,41.992,27.344,37.109,84.961
1578400994.515,39.062,42.969,28.320,43.457,67.871
1578400994.519,35.156,44.434,29.785,37.109,13.184
1578400994.523,29.785,41.504,25.879,29.785,25.391
1578400994.527,36.133,39.062,30.273,29.297,73.242
1578400994.530,36.133,38.574,34.180,27.344,72.754
1578400994.534,32.715,35.156,39.062,18.555,39.062
1578400994.538,36.133,39.062,46.875,21.973,6.836
1578400994.542,43.457,40.527,42.969,32.715,21.973
1578400994.546,49.316,33.203,34.668,36.621,91.797
1578400994.550,42.969,39.062,33.203,28.809,53.711
1578400994.554,33.691,43.457,32.227,20.508,-15.137
1578400994.558,41.504,44.434,26.367,22.949,-51.270
1578400994.562,39.062,44.434,25.391,22.461,1.465
1578400994.566,35.645,45.898,27.344,29.785,54.199
1578400994.570,45.410,45.898,31.250,45.898,77.148
1578400994.573,41.504,40.039,31.738,41.504,42.969
1578400994.577,44.434,38.574,27.832,35.156,-51.758
1578400994.581,50.781,41.504,24.902,40.039,9.766
1578400994.585,52.246,42.969,22.461,48.828,39.551
1578400994.589,45.410,42.969,21.484,51.758,19.531
1578400994.593,46.387,44.922,27.832,46.387,14.648
1578400994.597,54.688,42.480,27.832,44.434,59.570
1578400994.601,55.176,37.598,26.367,46.387,61.523
1578400994.605,50.781,39.062,27.832,49.805,8.301
1578400994.609,50.781,29.785,31.250,53.711,19.043
1578400994.612,46.387,27.344,30.762,62.012,18.066
1578400994.616,50.781,38.086,29.297,58.594,16.113
1578400994.620,58.594,45.898,29.785,32.715,16.602
1578400994.624,54.688,53.711,34.180,9.766,48.828
1578400994.628,54.688,48.828,32.227,12.207,96.191
1578400994.632,49.316,37.598,32.227,16.602,96.680
1578400994.636,44.434,28.320,28.809,11.719,59.570
1578400994.640,50.781,23.926,21.973,15.625,21.973
1578400994.644,55.664,30.762,20.996,27.832,-14.648
1578400994.648,58.105,38.574,21.973,45.898,43.945
1578400994.652,55.664,41.016,26.367,59.082,82.520
1578400994.655,56.152,48.340,31.250,59.082,66.406
1578400994.659,62.500,50.781,30.762,54.688,23.926
1578400994.663,62.988,47.852,26.367,50.781,2.441
1578400994.667,54.199,46.387,24.414,54.199,49.316
1578400994.671,44.434,41.016,28.809,57.129,26.855
1578400994.675,37.598,40.527,26.367,47.363,-4.883
1578400994.679,47.852,41.992,16.113,49.316,-14.160
1578400994.683,62.012,44.434,31.250,65.918,-50.293
1578400994.687,57.129,49.805,49.316,68.359,-35.645
1578400994.691,50.781,49.805,41.992,58.105,18.066
1578400994.695,56.641,41.016,35.156,55.664,62.988
1578400994.698,68.359,41.992,39.062,48.340,18.066
1578400994.702,71.289,48.340,35.156,38.086,-25.879
1578400994.706,68.848,47.852,33.691,38.086,17.578
1578400994.710,62.012,44.434,38.086,42.969,46.387
1578400994.714,54.199,46.875,40.527,39.551,50.781
1578400994.718,53.223,39.551,39.062,36.133,23.438
1578400994.722,56.641,39.062,40.039,34.180,11.230
1578400994.726,52.246,48.828,40.527,35.156,13.184
1578400994.730,35.156,52.246,36.133,37.598,55.664
1578400994.734,39.551,52.246,39.062,41.016,48.340
1578400994.737,43.945,49.316,35.156,46.875,14.160
1578400994.741,44.434,45.898,36.133,43.945,38.086
1578400994.745,42.480,40.527,38.574,44.922,42.969
1578400994.749,32.715,45.410,42.480,57.617,31.738
1578400994.753,34.180,47.852,47.363,57.129,3.418
1578400994.757,38.086,41.992,33.203,44.434,0.977
1578400994.761,48.340,45.410,27.344,37.598,35.156
1578400994.765,50.293,52.734,33.203,37.598,42.480
1578400994.769,42.480,48.340,34.668,40.039,86.914
1578400994.773,40.527,39.551,35.645,37.109,61.523
1578400994.777,50.781,50.781,42.969,43.457,-9.277
1578400994.780,65.430,63.477,53.223,49.805,12.695
1578400994.784,61.523,61.035,56.152,44.434,39.551
1578400994.788,49.316,62.012,54.688,43.457,17.090
1578400994.792,34.668,58.105,48.340,15.625,-11.719
1578400994.796,27.832,55.664,36.621,-20.508,10.742
1578400994.800,39.062,65.430,36.621,-24.902,39.551
1578400994.804,36.621,77.637,48.340,-15.137,45.898
1578400994.808,9.766,84.473,58.594,-14.160,50.781
1578400994.812,-5.859,82.031,57.129,-20.020,27.832
1578400994.816,-17.578,83.984,49.316,-39.551,53.711
1578400994.820,-33.691,87.891,57.129,-49.316,77.637
1578400994.823,-43.457,104.492,70.801,-39.062,102.539
1578400994.827,-75.195,113.281,72.754,-43.457,67.871
1578400994.831,-101.074,110.352,68.359,-57.617,38.574
1578400994.835,-99.609,120.117,71.777,-74.707,34.180
1578400994.839,-108.887,131.348,78.613,-94.727,57.617
1578400994.843,-103.516,129.395,83.984,-87.891,88.379
1578400994.847,-107.910,126.465,86.914,-91.309,53.711
1578400994.851,-130.859,123.047,86.914,-100.586,43.457
1578400994.855,-105.469,113.281,83.008,-88.867,22.461
1578400994.859,-79.102,109.375,81.543,-90.820,27.832
1578400994.862,-83.984,104.980,87.891,-88.867,54.199
1578400994.866,-74.707,103.516,88.867,-75.195,41.992
1578400994.870,-51.758,97.168,83.984,-56.641,89.355
1578400994.874,-48.828,84.473,77.637,-58.594,64.941
1578400994.878,-41.016,80.078,73.730,-68.848,15.625
1578400994.882,-15.137,79.102,65.430,-47.363,59.570
1578400994.886,-19.043,76.172,62.500,-28.320,52.734
1578400994.890,-35.156,66.406,62.012,-26.855,-19.531
1578400994.894,2.930,59.082,53.223,-7.812,0.488
1578400994.898,42.969,63.965,47.363,6.348,40.527
1578400994.902,41.992,68.359,46.875,15.625,25.391
1578400994.905,44.434,57.129,43.457,39.551,14.160
1578400994.909,66.406,41.016,35.645,56.152,59.570
1578400994.913,77.148,31.738,36.621,68.848,37.109
1578400994.917,89.844,19.043,39.551,77.637,-17.578
1578400994.921,103.516,14.648,32.227,92.773,11.719
1578400994.925,110.352,10.254,31.250,115.234,32.715
1578400994.929,106.934,2.930,33.203,117.188,-0.977
1578400994.933,100.586,-1.953,25.391,104.492,-25.879
1578400994.937,110.840,-3.906,19.043,95.703,-24.414
1578400994.941,117.676,-4.883,16.602,101.562,-14.160
1578400994.945,121.582,-9.766,17.090,116.699,-14.160
1578400994.948,119.629,-8.789,21.484,131.348,-7.324
1578400994.952,115.234,-7.324,20.020,138.672,42.480
1578400994.956,116.699,-10.254,13.184,130.371,53.711
1578400994.960,118.164,-10.742,12.695,128.418,42.480
1578400994.964,114.746,-14.648,17.090,139.648,44.434
1578400994.968,116.699,-11.719,20.508,149.414,67.383
1578400994.972,116.699,-5.859,19.531,147.461,42.969
1578400994.976,111.328,-2.441,23.926,137.207,64.941
1578400994.980,116.699,0.000,20.996,127.930,89.844
1578400994.984,123.047,-1.953,15.625,120.117,76.660
1578400994.987,119.141,3.906,15.137,126.465,69.336
1578400994.991,111.816,8.301,18.066,130.371,68.359
1578400994.995,105.469,0.488,18.555,119.141,5.859
1578400994.999,114.746,-2.441,20.508,109.375,1.953
1578400995.003,125.488,3.906,27.832,115.234,30.762
1578400995.007,123.047,15.625,26.855,115.234,7.324
1578400995.011,116.699,19.531,26.367,115.234,44.434
1578400995.015,114.746,17.090,29.785,113.281,74.707
1578400995.019,112.305,20.020,28.809,102.051,45.410
1578400995.023,113.281,22.949,28.320,100.098,7.324
1578400995.027,101.562,20.508,29.785,105.957,16.113
1578400995.030,79.102,20.996,30.762,96.191,48.340
1578400995.034,83.008,23.926,27.344,95.703,24.902
1578400995.038,90.820,21.973,27.832,102.051,-31.250
1578400995.042,74.707,30.273,27.832,85.938,-19.043
1578400995.046,72.754,31.738,20.508,84.961,-26.855
1578400995.050,83.984,10.742,16.113,101.074,14.648
1578400995.054,93.750,3.418,15.625,102.539,52.246
1578400995.058,99.121,3.906,13.672,105.957,5.371
1578400995.062,108.887,7.324,10.254,111.328,-7.324
1578400995.066,113.281,6.836,16.602,122.559,29.785
1578400995.070,113.770,-1.953,22.461,134.766,67.871
1578400995.073,114.258,-2.441,17.578,126.465,87.402
1578400995.077,124.023,4.883,16.602,115.723,49.316
1578400995.081,125.488,8.301,19.043,123.047,31.250
1578400995.085,115.723,9.766,20.508,132.812,55.664
1578400995.089,113.770,16.602,20.996,130.371,62.012
1578400995.093,115.723,19.531,21.973,124.023,36.621
1578400995.097,113.770,20.020,21.973,116.699,34.180
1578400995.101,113.281,23.438,23.438,102.539,22.949
1578400995.105,120.605,28.809,20.996,91.797,-1.465
1578400995.109,109.863,33.203,19.043,92.773,41.016
1578400995.112,95.215,31.738,27.832,90.332,70.312
1578400995.116,92.773,30.762,26.367,81.543,42.969
1578400995.120,93.262,33.203,25.879,71.777,56.152
1578400995.124,97.168,39.062,26.367,73.242,20.996
1578400995.128,102.051,41.016,20.508,75.195,-7.324
1578400995.132,81.543,39.551,21.484,68.848,28.320
1578400995.136,77.637,38.086,23.438,61.523,2.930
1578400995.140,77.637,35.645,21.484,59.082,40.039
1578400995.144,83.496,34.668,28.809,67.871,74.707
1578400995.148,80.566,27.832,30.273,76.172,77.148
1578400995.152,56.152,24.902,23.438,73.242,72.754
1578400995.155,65.430,38.086,24.902,69.824,13.184
1578400995.159,75.684,42.969,22.461,73.242,8.301
1578400995.163,74.219,42.480,21.973,74.219,63.477
1578400995.167,63.965,45.410,26.367,72.754,66.895
1578400995.171,52.734,44.434,27.832,71.289,-1.953
1578400995.175,47.852,40.527,29.785,68.359,-7.324
1578400995.179,52.734,41.504,26.367,62.500,-41.992
1578400995.183,51.758,43.945,22.461,55.664,-26.367
1578400995.187,44.434,42.969,25.879,54.688,19.531
1578400995.191,33.691,41.016,28.809,57.617,35.645
1578400995.195,33.691,41.016,31.738,42.480,25.391
1578400995.198,41.504,36.133,35.645,21.973,-52.734
1578400995.202,49.316,36.621,35.645,22.461,-56.641
1578400995.206,50.781,44.434,35.645,29.785,-36.133
1578400995.210,35.156,41.016,33.691,27.832,-12.207
1578400995.214,45.410,42.480,35.645,29.785,27.344
1578400995.218,59.570,47.363,36.133,30.762,60.059
1578400995.222,57.129,36.133,31.250,30.273,22.461
1578400995.226,60.547,31.738,28.320,42.480,-3.906
1578400995.230,57.129,38.574,25.391,49.316,31.738
1578400995.234,49.316,37.598,27.344,47.852,59.082
1578400995.237,50.293,39.062,30.273,41.992,101.074
1578400995.241,49.316,43.945,32.715,34.668,131.348
1578400995.245,46.875,46.387,30.762,45.410,45.410
1578400995.249,54.199,46.387,32.227,54.688,43.457
1578400995.253,35.156,38.086,38.574,46.387,68.848
1578400995.257,27.832,32.227,39.062,42.969,48.340
1578400995.261,38.086,35.645,38.574,42.969,36.621
1578400995.265,36.621,32.227,38.086,51.758,13.184
1578400995.269,36.133,29.785,36.621,55.664,12.207
1578400995.273,30.273,29.297,34.180,51.758,43.945
1578400995.277,41.504,34.180,36.133,50.781,55.176
1578400995.280,55.664,46.875,41.016,41.016,19.531
1578400995.284,48.340,45.898,39.551,37.598,22.949
1578400995.288,39.062,37.109,31.738,34.668,70.801
1578400995.292,41.504,32.227,32.715,40.039,85.938
1578400995.296,42.480,31.738,33.203,33.691,41.992
1578400995.300,43.945,39.062,31.250,7.812,-10.254
1578400995.304,47.852,49.805,31.738,16.602,21.973
1578400995.308,44.922,48.828,31.738,40.039,93.750
1578400995.312,54.199,45.898,32.227,50.781,63.965
1578400995.316,55.176,47.363,31.250,48.828,10.254
1578400995.320,48.828,35.156,29.785,46.387,-22.461
1578400995.323,63.965,34.668,31.738,55.176,11.230
1578400995.327,64.453,41.016,35.156,56.641,57.617
1578400995.331,48.340,36.133,37.598,58.105,75.684
1578400995.335,39.062,38.086,37.109,62.012,51.758
1578400995.339,50.781,41.504,40.039,56.641,46.387
1578400995.343,75.195,38.574,45.410,57.617,43.457
1578400995.347,57.617,40.039,40.527,56.641,-18.555
1578400995.351,30.273,41.504,38.574,54.199,-13.184
1578400995.355,45.898,41.504,40.527,53.223,31.250
1578400995.359,52.734,38.574,38.574,44.434,43.457
1578400995.362,36.133,31.738,36.133,40.039,38.574
1578400995.366,39.062,28.320,34.180,38.574,49.316
1578400995.370,38.574,31.738,32.715,39.062,42.969
1578400995.374,25.879,36.133,27.832,38.086,20.020
1578400995.378,24.902,40.039,25.391,25.391,16.602
1578400995.382,43.457,40.527,28.320,24.414,22.461
1578400995.386,61.035,34.180,27.832,26.855,29.297
1578400995.390,46.387,32.227,29.297,31.250,27.832
1578400995.394,34.180,36.133,26.855,30.762,23.926
1578400995.398,43.457,32.227,22.461,21.484,22.949
1578400995.402,48.340,29.297,23.926,19.531,-3.418
1578400995.405,62.012,33.691,27.344,24.902,18.066
1578400995.409,53.711,36.133,27.832,31.250,26.367
1578400995.413,39.062,34.668,31.738,38.574,-3.906
1578400995.417,45.410,21.484,46.387,53.711,25.879
1578400995.421,46.387,16.113,47.363,45.410,26.367
1578400995.425,20.508,24.902,42.969,30.273,74.219
1578400995.429,17.090,23.438,47.363,35.645,105.469
1578400995.433,18.066,17.090,53.711,38.086,37.598
1578400995.437,-1.465,15.137,49.805,18.066,-9.766
1578400995.441,11.230,22.461,51.758,4.395,12.695
1578400995.445,18.066,25.391,58.594,10.742,104.004
1578400995.448,-2.930,21.973,52.246,15.137,109.863
1578400995.452,2.930,22.461,48.340,21.484,86.426
1578400995.456,28.320,24.414,49.316,29.785,55.664
1578400995.460,32.227,23.438,43.457,30.273,35.645
1578400995.464,33.691,28.809,38.574,31.738,48.828
1578400995.468,35.156,27.832,36.133,36.133,-3.906
1578400995.472,36.133,34.180,33.691,38.574,29.785
1578400995.476,37.109,35.645,32.715,37.109,23.926
1578400995.480,36.621,34.180,28.320,28.320,-50.293
1578400995.484,38.574,32.227,31.738,33.203,-25.391
1578400995.487,52.246,28.809,30.273,48.828,12.207
1578400995.491,51.758,34.180,29.785,50.293,42.480
1578400995.495,40.527,39.062,30.762,39.062,-8.789
1578400995.499,38.574,40.527,35.156,31.738,-12.695
1578400995.503,48.340,41.992,45.410,38.086,56.152
1578400995.507,51.270,40.527,34.180,41.504,11.719
1578400995.511,37.598,37.598,33.203,46.875,3.906
1578400995.515,29.785,37.598,50.293,44.922,41.016
1578400995.519,35.645,35.645,43.945,28.809,-5.859
1578400995.523,38.574,30.273,37.109,28.320,-29.297
1578400995.527,32.715,27.832,43.945,35.645,50.781
1578400995.530,22.949,30.273,46.875,36.621,114.258
1578400995.534,25.879,28.809,40.527,42.969,64.453
1578400995.538,38.574,33.203,40.527,40.527,21.973
1578400995.542,42.969,33.203,38.086,42.969,-1.465
1578400995.546,60.059,29.785,34.180,72.754,20.020
1578400995.550,43.945,38.574,48.828,69.336,64.453
1578400995.554,-11.230,45.410,54.688,14.160,73.242
1578400995.558,-24.902,48.340,53.223,-28.809,78.613
1578400995.562,-32.715,51.270,45.410,-49.805,77.148
1578400995.566,-67.871,52.246,38.574,-80.566,91.309
1578400995.570,-91.309,56.152,49.316,-104.492,71.777
1578400995.573,-106.445,59.082,58.105,-109.375,44.434
1578400995.577,-109.375,61.035,45.898,-131.836,16.113
1578400995.581,-103.027,63.477,38.574,-154.785,52.734
1578400995.585,-116.211,67.383,44.922,-166.016,67.383
1578400995.589,-131.836,67.871,41.992,-160.645,-19.531
1578400995.593,-134.277,74.707,42.480,-162.109,7.812
1578400995.597,-119.629,81.543,35.645,-171.875,41.016
1578400995.601,-104.004,75.684,33.691,-168.457,40.039
1578400995.605,-112.305,68.848,46.387,-162.109,10.742
1578400995.609,-101.074,66.895,46.875,-139.160,-2.930
1578400995.612,-95.215,60.059,37.598,-127.930,51.758
1578400995.616,-87.402,48.340,33.203,-113.281,35.645
1578400995.620,-58.105,47.852,32.715,-87.402,35.645
1578400995.624,-44.922,47.363,32.715,-62.988,57.129
1578400995.628,-36.621,39.551,34.668,-36.621,57.129
1578400995.632,-30.273,36.133,37.598,-18.555,46.387
1578400995.636,-26.855,34.668,39.551,-1.953,47.852
1578400995.640,-7.324,26.367,40.039,11.230,8.301
1578400995.644,11.230,28.809,41.504,34.668,-10.742
1578400995.648,5.859,32.227,41.016,43.457,41.992
1578400995.652,1.953,26.367,48.340,37.598,49.805
1578400995.655,3.906,26.855,50.293,40.039,3.418
1578400995.659,14.160,29.297,39.062,41.992,-23.926
1578400995.663,22.461,26.855,30.762,39.551,8.789
1578400995.667,19.531,23.438,29.785,47.852,41.016
1578400995.671,22.949,24.414,26.367,48.828,29.297
1578400995.675,29.785,25.879,23.438,42.480,41.016
1578400995.679,42.969,31.250,25.879,41.504,44.434
1578400995.683,58.105,36.621,26.855,41.504,48.340
1578400995.687,60.059,42.480,27.832,47.363,64.453
1578400995.691,54.199,46.875,27.344,41.016,25.879
1578400995.695,53.223,42.969,20.996,29.785,46.875
1578400995.698,68.848,39.551,22.461,27.344,80.566
1578400995.702,73.730,36.621,20.508,33.203,46.387
1578400995.706,63.477,33.203,30.762,41.504,40.039
1578400995.710,50.781,32.227,41.992,42.969,14.648
1578400995.714,41.016,27.344,36.621,36.621,16.113
1578400995.718,39.551,27.344,35.156,40.039,39.551
1578400995.722,47.852,34.668,32.715,53.223,69.336
1578400995.726,59.570,34.180,36.621,65.430,87.402
1578400995.730,44.922,27.832,37.598,68.359,80.566
1578400995.734,31.250,22.949,36.133,59.082,44.434
1578400995.737,33.203,27.344,39.551,58.105,27.832
1578400995.741,33.691,23.438,35.645,70.801,37.109
1578400995.745,41.016,21.484,39.551,72.754,64.941
1578400995.749,33.691,25.879,50.781,71.289,82.031
1578400995.753,20.508,29.297,53.711,74.707,19.043
1578400995.757,20.996,30.273,50.781,62.012,13.672
1578400995.761,18.555,25.879,44.434,48.828,37.109
1578400995.765,11.230,26.367,41.016,48.828,16.113
1578400995.769,5.371,27.344,40.039,44.922,-20.508
1578400995.773,3.906,30.762,34.180,41.016,-21.973
1578400995.777,11.230,28.320,33.203,36.621,24.902
1578400995.780,28.320,21.973,34.668,32.227,9.277
1578400995.784,41.992,34.180,39.062,39.062,14.648
1578400995.788,37.109,43.945,44.922,50.781,49.805
1578400995.792,27.344,30.273,39.062,50.781,26.367
1578400995.796,39.062,28.809,34.180,46.387,4.883
1578400995.800,55.664,38.574,32.227,39.551,18.555
1578400995.804,62.500,34.668,30.273,35.645,66.406
1578400995.808,61.035,29.297,29.785,41.016,-9.766
1578400995.812,61.523,26.367,30.762,39.062,-23.926
1578400995.816,61.035,31.738,34.668,35.645,62.988
1578400995.820,62.988,33.203,31.738,35.645,93.750
1578400995.823,72.754,38.086,32.715,36.621,63.965
1578400995.827,69.336,39.551,31.738,40.527,37.598
1578400995.831,49.316,31.250,27.344,34.668,22.949
1578400995.835,48.340,35.645,30.273,25.391,9.277
1578400995.839,55.176,43.457,34.180,20.996,50.781
1578400995.843,59.082,45.898,32.715,24.414,77.637
1578400995.847,60.059,41.504,31.738,29.785,86.426
1578400995.851,57.129,38.086,32.227,24.414,83.984
1578400995.855,57.129,35.156,26.855,26.367,62.988
1578400995.859,61.523,34.180,29.297,28.320,98.633
1578400995.862,71.777,41.992,34.668,29.297,83.496
1578400995.866,68.359,46.875,40.039,40.527,73.242
1578400995.870,47.363,41.504,39.062,44.434,42.969
1578400995.874,38.574,36.621,35.645,41.992,26.367
1578400995.878,45.898,39.551,38.086,46.387,84.961
1578400995.882,42.480,37.598,37.598,41.504,23.438
1578400995.886,34.180,25.391,42.480,40.527,14.160
1578400995.890,41.016,23.438,43.457,64.453,41.016
1578400995.894,29.297,31.250,34.668,56.152,38.574
1578400995.898,7.812,38.574,33.203,33.203,92.285
1578400995.902,13.672,41.992,35.156,36.133,64.453
1578400995.905,18.066,41.504,35.645,42.969,1.953
1578400995.909,5.371,39.062,34.180,41.016,23.926
1578400995.913,3.418,42.480,33.203,35.156,10.742
1578400995.917,16.602,43.457,27.832,33.691,-4.395
1578400995.921,26.367,44.434,26.855,30.762,23.438
1578400995.925,36.133,43.945,30.762,36.621,20.508
1578400995.929,40.527,41.992,32.715,45.898,24.414
1578400995.933,32.715,39.062,30.762,41.992,35.156
1578400995.937,31.738,38.086,27.344,42.480,41.016
1578400995.941,46.387,41.016,32.715,45.898,2.930
1578400995.945,50.293,44.434,35.156,37.598,13.672
1578400995.948,51.270,48.340,39.062,46.875,11.230
1578400995.952,51.758,42.969,45.410,48.340,-37.598
1578400995.956,46.387,34.668,36.621,31.250,-28.320
1578400995.960,52.734,37.109,37.598,24.902,14.160
1578400995.964,58.594,41.016,45.410,26.367,26.367
1578400995.968,50.781,38.574,43.457,37.598,38.574
1578400995.972,45.410,36.621,41.016,40.527,10.254
1578400995.976,52.734,37.598,48.340,41.992,-20.508
1578400995.980,64.453,43.457,54.199,50.781,16.113
1578400995.984,58.594,40.039,42.480,49.316,48.340
1578400995.987,46.387,28.809,45.410,58.594,68.848
1578400995.991,39.062,30.273,51.270,72.266,91.309
1578400995.995,31.738,29.297,45.410,71.777,24.414
1578400995.999,37.109,32.227,45.410,75.195,-1.953
1578400996.003,44.922,30.762,49.316,69.336,31.250
1578400996.007,46.875,30.273,51.758,73.730,41.504
1578400996.011,45.410,36.621,46.875,85.449,72.266
1578400996.015,33.203,29.785,40.527,67.383,91.309
1578400996.019,32.227,31.250,38.086,57.129,27.344
1578400996.023,45.410,38.086,41.992,54.688,2.930
1578400996.027,51.270,41.504,46.875,49.805,46.387
1578400996.030,49.805,41.992,39.062,51.758,40.527
1578400996.034,49.316,42.969,32.715,48.828,41.016
1578400996.038,52.246,42.969,33.691,29.785,30.762
1578400996.042,65.430,52.246,30.762,27.344,58.105
1578400996.046,74.219,56.152,33.691,37.109,27.344
1578400996.050,59.082,47.363,37.109,30.762,-31.738
1578400996.054,51.270,47.363,35.156,24.902,2.441
1578400996.058,60.547,52.734,34.180,27.344,49.316
1578400996.062,73.242,57.129,31.738,35.156,-9.766
1578400996.066,71.289,55.664,32.715,37.109,-27.344
1578400996.070,60.059,51.270,40.039,40.527,28.809
1578400996.073,46.387,49.805,41.504,45.898,53.711
1578400996.077,40.039,47.363,28.809,41.016,48.828
1578400996.081,60.547,45.410,25.391,44.434,38.574
1578400996.085,63.477,41.504,28.809,46.875,93.750
1578400996.089,48.340,40.039,30.762,38.086,83.008
1578400996.093,32.715,39.551,33.691,26.855,31.250
1578400996.097,29.297,35.156,35.156,23.438,53.711
1578400996.101,31.250,34.180,31.250,30.762,62.988
1578400996.105,37.598,38.574,29.297,35.156,39.551
1578400996.109,47.363,37.109,30.273,41.504,23.438
1578400996.112,32.227,34.668,29.297,41.992,33.203
1578400996.116,25.879,36.133,30.273,38.086,21.973
1578400996.120,44.922,42.480,35.156,37.598,27.832
1578400996.124,50.781,41.504,30.273,29.297,47.852
1578400996.128,41.016,32.227,21.973,25.391,39.062
1578400996.132,37.109,34.668,22.949,28.809,31.738
1578400996.136,43.457,38.086,24.902,29.297,0.488
1578400996.140,56.641,42.480,31.738,29.297,-19.531
1578400996.144,63.965,41.504,37.109,32.715,-3.418
1578400996.148,57.617,40.039,30.273,34.180,-1.953
1578400996.152,41.016,43.945,26.367,33.203,22.461
1578400996.155,36.133,51.758,27.344,25.391,83.008
1578400996.159,46.875,49.316,28.320,23.438,85.449
1578400996.163,58.594,42.969,25.879,32.715,79.590
1578400996.167,50.781,45.410,33.203,40.039,27.832
1578400996.171,39.551,44.434,42.480,44.922,23.438
1578400996.175,31.250,41.992,39.551,44.434,80.078
1578400996.179,25.879,37.598,36.621,35.156,57.617
1578400996.183,28.320,36.621,35.156,37.109,-0.488
1578400996.187,25.879,29.785,38.086,41.992,0.977
1578400996.191,21.484,24.414,37.598,45.410,6.836
1578400996.195,10.254,26.367,36.133,47.852,-1.953
1578400996.198,15.625,30.273,39.062,41.504,42.480
1578400996.202,17.090,28.809,34.668,37.109,65.430
1578400996.206,7.324,23.926,34.668,36.133,66.895
1578400996.210,7.812,21.484,42.480,41.016,30.273
1578400996.214,7.812,16.113,43.457,39.062,24.414
1578400996.218,6.836,14.648,38.086,34.180,38.574
1578400996.222,21.484,28.320,36.621,38.086,-14.160
1578400996.226,42.480,39.062,49.316,47.852,8.301
1578400996.230,33.203,36.133,46.387,49.316,43.457
1578400996.234,28.320,30.762,34.180,45.898,53.711
1578400996.237,36.133,30.762,36.133,45.410,28.320
1578400996.241,46.875,35.645,41.992,45.410,-48.828
1578400996.245,57.129,41.016,46.387,44.922,-58.105
1578400996.249,57.129,45.898,42.969,47.852,28.809
1578400996.253,62.500,50.293,42.480,49.805,49.316
1578400996.257,60.547,45.898,43.945,41.504,-18.066
1578400996.261,56.152,40.039,40.039,33.203,-9.766
1578400996.265,60.059,45.898,38.086,29.785,49.805
1578400996.269,52.734,44.922,32.715,34.180,71.777
1578400996.273,41.992,39.062,32.715,41.016,71.289
1578400996.277,44.434,44.434,39.062,39.551,72.266
1578400996.280,69.824,42.480,36.133,52.246,57.617
1578400996.284,82.031,43.945,39.551,62.988,76.172
1578400996.288,41.016,45.410,42.969,33.691,87.891
1578400996.292,11.230,38.574,33.691,10.742,35.156
1578400996.296,18.066,33.691,25.879,20.020,0.977
1578400996.300,28.320,35.156,26.367,28.809,9.277
1578400996.304,43.945,43.945,28.809,37.109,44.922
1578400996.308,48.340,43.457,31.250,45.410,62.500
1578400996.312,46.387,40.039,33.203,52.734,87.402
1578400996.316,47.363,41.992,32.227,53.223,62.988
1578400996.320,56.641,41.992,30.273,50.293,51.758
1578400996.323,62.988,44.434,27.344,45.410,32.715
1578400996.327,57.617,43.457,27.344,46.387,45.898
1578400996.331,56.641,43.945,32.715,58.594,53.711
1578400996.335,46.875,43.457,29.297,47.852,-4.395
1578400996.339,41.992,39.062,25.391,36.621,4.883
1578400996.343,55.664,37.109,26.855,43.457,0.000
1578400996.347,60.059,34.668,32.715,47.852,20.020
1578400996.351,48.340,33.691,36.621,49.316,31.738
1578400996.355,42.480,37.598,30.762,45.410,13.184
1578400996.359,50.781,39.062,33.691,40.527,15.625
1578400996.362,59.570,41.992,33.203,41.016,77.637
1578400996.366,58.105,43.945,28.320,44.922,92.773
1578400996.370,48.828,39.062,32.227,46.875,68.359
1578400996.374,45.898,38.574,38.086,47.852,41.016
1578400996.378,48.340,36.621,38.574,46.875,55.176
1578400996.382,54.199,34.180,36.621,45.898,65.430
1578400996.386,51.758,34.180,35.156,48.828,62.012
1578400996.390,42.969,31.250,30.762,51.270,42.480
1578400996.394,34.668,29.297,27.344,46.387,-5.371
1578400996.398,39.062,37.598,33.203,42.969,25.391
1578400996.402,46.387,42.480,32.715,39.062,25.879
1578400996.405,40.039,40.039,25.879,31.738,29.297
1578400996.409,24.414,35.156,30.273,34.668,62.012
1578400996.413,21.484,34.180,38.574,40.039,18.555
1578400996.417,22.949,38.574,33.691,37.598,29.297
1578400996.421,31.250,37.598,34.668,36.133,29.785
1578400996.425,40.039,36.133,42.480,38.574,14.160
1578400996.429,22.461,32.227,37.109,38.086,21.973
1578400996.433,17.578,33.203,38.086,40.527,31.738
1578400996.437,22.461,36.621,39.551,38.574,36.133
1578400996.441,29.297,37.598,33.691,26.367,5.371
1578400996.445,34.668,36.133,37.598,22.949,16.602
1578400996.448,30.273,36.133,40.039,28.320,55.664
1578400996.452,20.996,37.109,42.480,27.832,80.078
1578400996.456,17.578,38.086,45.410,20.996,47.363
1578400996.460,25.391,40.527,38.574,21.484,26.367
1578400996.464,29.297,41.504,34.668,27.832,33.203
1578400996.468,29.297,39.062,35.645,26.367,-23.926
1578400996.472,25.391,41.992,35.645,28.320,-35.645
1578400996.476,31.250,46.875,31.738,34.668,-11.719
1578400996.480,47.852,38.574,23.926,34.180,30.762
1578400996.484,52.246,37.598,21.484,30.273,-21.484
1578400996.487,31.738,40.527,28.809,20.996,-42.969
1578400996.491,13.184,37.109,29.297,20.508,22.461
1578400996.495,24.902,36.621,26.855,34.668,59.570
1578400996.499,40.527,41.504,26.855,41.992,67.871
1578400996.503,47.363,41.016,28.809,44.922,33.203
1578400996.507,64.453,40.039,28.320,55.664,36.621
1578400996.511,60.059,41.992,26.367,57.617,97.656
1578400996.515,54.199,38.574,24.902,62.500,45.898
1578400996.519,67.871,37.109,26.367,67.871,-8.789
1578400996.523,75.684,41.992,27.832,64.453,7.812
1578400996.527,84.473,46.875,29.297,84.473,23.926
1578400996.530,87.891,41.016,36.133,99.121,45.898
1578400996.534,88.379,33.203,29.785,101.074,56.152
1578400996.538,101.562,34.668,23.438,108.398,65.918
1578400996.542,103.027,35.156,28.320,104.492,64.453
1578400996.546,101.562,32.715,27.344,104.492,14.648
1578400996.550,110.840,34.180,25.879,110.352,-16.113
1578400996.554,104.004,33.691,28.320,108.398,29.297
1578400996.558,98.633,36.621,29.785,99.121,4.883
1578400996.562,109.375,43.457,33.691,94.727,2.441
1578400996.566,108.398,45.410,37.598,100.098,22.461
1578400996.570,103.027,47.363,34.668,103.516,31.738
1578400996.573,95.703,42.480,34.180,90.820,46.875
1578400996.577,86.914,40.527,32.715,76.660,21.484
1578400996.581,87.891,44.434,24.902,77.148,79.590
1578400996.585,89.844,42.969,26.367,81.543,90.332
1578400996.589,84.961,43.945,32.715,85.449,48.828
1578400996.593,73.242,44.922,36.621,79.102,62.988
1578400996.597,65.430,43.457,31.738,65.918,23.926
1578400996.601,64.941,42.969,28.320,60.547,-4.883
1578400996.605,67.383,42.969,31.250,65.430,7.812
1578400996.609,65.430,42.480,37.109,68.359,38.086
1578400996.612,60.547,42.480,37.598,64.453,49.805
1578400996.616,57.617,46.387,31.250,60.547,43.945
1578400996.620,63.477,52.734,33.691,58.594,85.938
1578400996.624,73.242,52.246,36.621,61.523,65.430
1578400996.628,72.266,49.316,34.668,63.965,40.039
1578400996.632,63.965,51.270,34.180,64.941,33.691
1578400996.636,64.941,54.199,35.156,61.523,4.395
1578400996.640,71.777,48.828,37.109,56.641,-29.785
1578400996.644,72.266,45.898,37.598,57.617,24.414
1578400996.648,69.336,48.340,42.969,62.988,45.898
1578400996.652,63.965,51.270,47.852,69.336,53.223
1578400996.655,57.129,44.922,44.434,66.406,62.012
1578400996.659,60.547,44.434,43.945,58.594,1.465
1578400996.663,67.871,48.340,46.875,57.129,21.484
1578400996.667,65.918,44.922,47.852,62.500,58.105
1578400996.671,62.012,44.434,51.270,71.289,18.066
1578400996.675,59.082,44.922,52.246,72.754,-16.602
1578400996.679,57.129,43.945,41.504,63.965,11.230
1578400996.683,69.336,50.293,43.457,66.406,10.254
1578400996.687,71.289,51.270,43.457,65.918,33.691
1578400996.691,56.152,38.086,23.926,57.129,96.680
1578400996.695,46.875,33.691,33.691,57.129,87.402
1578400996.698,47.363,33.691,50.293,52.246,60.547
1578400996.702,60.547,29.297,32.715,50.293,63.477
1578400996.706,64.941,36.621,29.297,46.387,40.527
1578400996.710,48.340,44.922,45.410,37.598,48.340
1578400996.714,49.316,36.621,33.691,48.340,30.762
1578400996.718,62.500,30.273,37.109,62.500,37.109
1578400996.722,47.852,38.574,46.387,41.504,84.473
1578400996.726,21.484,51.270,38.574,11.230,76.172
1578400996.730,-0.488,51.758,45.898,2.441,73.242
1578400996.734,-27.832,55.664,53.711,-16.113,68.359
1578400996.737,-43.945,56.641,44.434,-40.527,-0.977
1578400996.741,-61.035,49.805,48.828,-64.453,-24.414
1578400996.745,-84.961,48.340,55.664,-91.797,13.184
1578400996.749,-82.520,51.270,53.223,-89.355,23.438
1578400996.753,-106.934,49.316,56.641,-110.352,25.391
1578400996.757,-114.746,47.852,54.199,-114.746,29.785
1578400996.761,-109.863,54.688,57.617,-114.258,28.809
1578400996.765,-112.793,50.293,60.059,-122.070,-4.883
1578400996.769,-94.238,50.781,58.105,-98.633,-7.812
1578400996.773,-108.398,47.852,59.082,-102.539,41.504
1578400996.777,-100.586,37.109,49.316,-92.285,48.340
1578400996.780,-84.473,33.203,47.852,-88.867,49.316
1578400996.784,-71.777,29.297,52.246,-75.684,62.012
1578400996.788,-54.199,25.879,54.688,-42.480,63.477
1578400996.792,-45.898,20.508,51.758,-28.809,45.410
1578400996.796,-33.203,20.508,48.340,-18.066,12.207
1578400996.800,-15.625,20.996,47.363,-11.719,68.359
1578400996.804,2.930,20.508,45.410,0.000,75.195
1578400996.808,5.371,28.320,50.293,16.602,48.828
1578400996.812,4.395,28.320,51.270,19.043,53.711
1578400996.816,5.859,20.508,42.969,17.090,26.855
1578400996.820,10.742,20.508,40.039,15.625,47.363
1578400996.823,18.555,28.320,42.480,19.043,19.531
1578400996.827,23.926,33.203,42.480,29.785,-10.254
1578400996.831,31.250,32.227,42.969,36.133,32.227
1578400996.835,37.598,29.785,49.316,38.574,-2.441
1578400996.839,43.457,32.715,45.898,40.527,-5.859
1578400996.843,55.176,30.273,32.715,42.969,-3.418
1578400996.847,62.988,33.691,28.320,47.363,-11.230
1578400996.851,47.852,37.598,34.180,52.734,24.902
1578400996.855,40.039,32.227,39.062,53.223,27.832
1578400996.859,47.363,30.273,38.574,47.363,-19.043
1578400996.862,49.316,33.691,41.016,43.945,34.668
1578400996.866,51.270,36.621,38.574,51.758,99.609
1578400996.870,48.828,38.086,35.645,55.176,63.965
1578400996.874,46.387,37.598,40.527,51.758,35.645
1578400996.878,46.875,37.109,33.203,46.875,24.414
1578400996.882,52.734,37.109,27.344,41.016,-4.395
1578400996.886,64.941,37.109,35.645,45.410,10.742
1578400996.890,60.547,37.598,36.621,54.688,2.441
1578400996.894,50.781,33.691,36.133,49.316,27.832
1578400996.898,56.152,34.668,39.062,41.992,100.586
1578400996.902,57.129,38.086,35.645,36.133,-6.836
1578400996.905,61.523,40.039,36.621,38.574,-34.180
1578400996.909,65.918,41.016,40.039,56.152,53.223
1578400996.913,49.805,36.133,32.227,55.664,41.504
1578400996.917,41.992,35.645,32.227,46.875,4.395
1578400996.921,58.105,36.621,40.039,47.852,-2.930
1578400996.925,61.523,34.180,40.039,46.387,0.977
1578400996.929,49.805,33.203,39.062,44.434,9.277
1578400996.933,42.969,32.227,32.715,41.016,12.695
1578400996.937,31.738,33.691,28.809,33.203,27.344
1578400996.941,32.227,37.109,34.180,32.227,49.316
1578400996.945,41.992,41.504,37.109,35.645,59.570
1578400996.948,29.297,33.203,33.691,28.320,27.832
1578400996.952,18.555,22.949,31.250,27.832,36.621
1578400996.956,24.902,27.344,34.180,31.738,49.316
1578400996.960,34.180,32.715,36.133,34.180,34.180
1578400996.964,44.922,31.250,31.250,37.109,52.246
1578400996.968,53.223,37.109,30.762,41.016,34.668
1578400996.972,46.387,44.434,31.738,41.504,-3.906
1578400996.976,45.410,43.457,36.133,44.922,11.230
1578400996.980,54.688,41.992,33.691,41.016,17.578
1578400996.984,53.223,41.504,20.020,31.250,3.418
1578400996.987,49.316,37.109,21.973,36.621,42.969
1578400996.991,36.621,33.203,31.250,38.574,63.477
1578400996.995,28.320,33.691,39.062,35.156,60.547
1578400996.999,34.180,35.645,43.457,32.715,83.984
1578400997.003,44.922,33.203,41.992,34.668,55.664
1578400997.007,44.434,35.645,43.457,39.062,2.930
1578400997.011,35.156,33.691,36.133,36.133,69.336
1578400997.015,32.715,31.738,28.809,33.691,97.656
1578400997.019,36.621,35.156,30.273,36.621,-0.488
1578400997.023,47.852,38.574,27.344,38.574,10.742
1578400997.027,47.363,42.969,27.344,44.922,37.598
1578400997.030,42.480,39.551,37.598,56.152,-15.625
1578400997.034,41.504,36.133,39.062,51.270,-25.879
1578400997.038,37.109,34.668,36.621,35.645,-26.855
1578400997.042,38.574,34.668,45.410,34.668,-2.441
1578400997.046,40.527,39.551,43.945,38.574,12.695
1578400997.050,32.227,34.180,31.738,32.227,28.809
1578400997.054,26.367,29.297,30.273,31.738,50.293
1578400997.058,34.668,37.109,26.367,31.738,26.367
1578400997.062,50.293,42.480,27.832,33.691,38.086
1578400997.066,54.688,39.062,35.156,38.574,20.996
1578400997.070,43.945,41.992,32.715,35.645,-0.977
1578400997.073,39.062,47.852,41.016,38.574,19.531
1578400997.077,38.574,42.480,43.457,33.691,16.602
1578400997.081,36.133,42.480,33.203,20.508,48.828
1578400997.085,38.574,44.434,31.738,19.531,59.082
1578400997.089,30.273,40.527,30.762,28.320,17.578
1578400997.093,18.066,38.086,30.273,33.203,64.453
1578400997.097,27.832,35.645,30.273,35.156,106.934
1578400997.101,48.340,37.109,29.785,45.898,100.098
1578400997.105,48.340,49.316,28.320,36.621,57.617
1578400997.109,29.297,52.734,35.645,9.766,55.176
1578400997.112,25.391,47.852,40.039,20.996,98.145
1578400997.116,36.621,49.316,32.715,39.062,43.457
1578400997.120,49.316,43.457,31.738,43.457,-36.133
1578400997.124,61.035,48.340,26.367,46.875,-6.836
1578400997.128,60.059,52.246,24.414,52.246,61.523
1578400997.132,59.082,49.316,25.391,63.477,60.059
1578400997.136,53.223,48.340,16.602,59.570,36.621
1578400997.140,57.617,45.898,14.160,53.223,53.223
1578400997.144,74.219,48.828,18.555,61.523,44.922
1578400997.148,72.266,52.246,24.414,68.848,14.648
1578400997.152,58.105,56.152,26.855,67.383,43.945
1578400997.155,57.617,56.152,28.320,67.383,76.660
1578400997.159,63.965,52.734,29.785,63.965,56.152
1578400997.163,68.848,55.176,26.855,58.594,28.320
1578400997.167,73.242,56.152,25.391,54.688,28.320
1578400997.171,62.012,47.363,25.879,55.664,39.062
1578400997.175,59.082,41.504,28.320,57.129,41.504
1578400997.179,67.383,45.898,29.785,50.781,66.406
1578400997.183,70.312,47.852,27.832,52.734,47.363
1578400997.187,74.707,47.363,34.668,65.430,31.738
1578400997.191,70.312,44.434,38.086,67.383,25.391
1578400997.195,47.852,37.598,31.738,52.734,40.527
1578400997.198,46.875,38.086,28.809,48.828,27.832
1578400997.202,61.035,41.992,31.738,51.270,15.625
1578400997.206,59.570,42.969,32.715,48.828,49.316
1578400997.210,61.523,39.062,31.738,54.199,14.160
1578400997.214,54.199,34.668,32.227,56.641,34.668
1578400997.218,55.176,40.039,30.762,54.688,21.484
1578400997.222,64.941,44.434,29.297,56.152,-5.859
1578400997.226,64.941,45.410,31.738,54.688,30.762
1578400997.230,62.988,43.457,31.250,59.570,32.715
1578400997.234,58.105,37.598,30.273,63.477,36.133
1578400997.237,56.641,34.180,34.668,60.059,52.246
1578400997.241,54.688,32.227,35.645,54.199,75.195
1578400997.245,60.547,33.691,37.109,54.688,56.152
1578400997.249,57.617,28.809,37.109,55.176,23.926
1578400997.253,45.898,26.367,32.227,50.293,26.367
1578400997.257,45.898,27.832,40.039,50.781,42.480
1578400997.261,51.758,24.902,43.945,45.898,29.785
1578400997.265,59.570,26.855,39.551,42.480,10.254
1578400997.269,57.129,29.297,36.621,48.828,72.266
1578400997.273,46.875,33.691,33.203,49.805,38.574
1578400997.277,43.457,37.598,34.180,44.434,-3.418
1578400997.280,49.805,40.527,37.109,35.645,57.129
1578400997.284,54.688,44.434,35.645,35.645,24.902
1578400997.288,46.875,46.387,37.109,38.574,14.648
1578400997.292,29.785,36.133,32.227,41.992,53.711
1578400997.296,31.738,33.203,29.785,48.828,70.312
1578400997.300,45.898,36.621,38.086,47.852,62.012
1578400997.304,36.133,36.133,35.645,34.668,64.941
1578400997.308,28.320,39.062,30.762,24.902,43.457
1578400997.312,22.461,36.621,33.203,25.879,-27.832
1578400997.316,17.578,33.691,37.109,26.367,-6.836
1578400997.320,29.297,33.203,41.016,32.715,43.457
1578400997.323,41.016,33.203,41.016,35.156,33.691
1578400997.327,41.016,34.180,40.527,32.715,20.996
1578400997.331,35.645,35.645,41.504,44.922,38.574
1578400997.335,29.785,32.227,41.992,44.922,25.391
1578400997.339,35.156,33.203,37.598,36.621,0.488
1578400997.343,41.504,32.715,35.156,33.203,20.020
1578400997.347,48.340,34.180,37.598,39.062,47.363
1578400997.351,46.875,33.691,39.551,47.852,27.344
1578400997.355,38.574,33.691,47.852,47.363,-10.254
1578400997.359,38.086,35.156,44.434,40.527,-0.488
1578400997.362,45.410,29.785,32.715,34.180,32.715
1578400997.366,52.734,35.156,31.738,34.180,47.852
1578400997.370,39.062,40.039,31.738,29.785,71.777
1578400997.374,34.180,42.480,35.156,35.156,56.641
1578400997.378,38.574,40.527,40.039,39.551,27.832
1578400997.382,42.480,34.668,38.574,39.551,37.109
1578400997.386,51.758,39.062,34.668,45.410,65.430
1578400997.390,48.828,39.062,34.180,47.852,50.781
1578400997.394,44.434,34.180,35.645,50.293,48.828
1578400997.398,37.598,36.133,37.598,45.898,67.871
1578400997.402,49.316,40.527,38.574,40.527,73.730
1578400997.405,58.594,41.504,37.109,40.039,33.203
1578400997.409,42.969,35.156,32.227,34.668,0.000
1578400997.413,37.598,30.273,30.273,39.551,-8.789
1578400997.417,39.062,29.297,27.832,38.574,-4.395
1578400997.421,42.969,35.156,27.344,37.109,-0.977
1578400997.425,55.664,37.598,25.391,44.922,0.977
1578400997.429,54.199,40.039,23.926,45.410,9.277
1578400997.433,41.016,41.016,31.738,41.992,15.625
1578400997.437,37.598,35.645,32.715,38.574,28.320
1578400997.441,42.480,34.668,26.367,33.691,-6.348
1578400997.445,48.828,40.039,34.180,33.691,8.301
1578400997.448,48.340,41.992,42.480,41.504,39.062
1578400997.452,40.527,40.039,45.898,49.805,20.020
1578400997.456,40.039,41.504,46.387,47.852,51.270
1578400997.460,42.480,39.551,39.062,38.086,71.777
1578400997.464,41.504,35.645,35.156,38.086,33.691
1578400997.468,46.875,34.180,37.109,41.992,28.809
1578400997.472,41.992,30.273,37.109,37.598,41.016
1578400997.476,27.832,33.203,37.109,37.598,67.383
1578400997.480,29.785,32.227,36.133,42.480,56.641
1578400997.484,45.898,35.645,34.668,42.480,2.441
1578400997.487,46.387,48.340,31.738,35.156,32.227
1578400997.491,28.320,46.387,33.203,23.926,87.402
1578400997.495,20.996,40.527,32.715,24.414,30.762
1578400997.499,25.879,35.645,31.738,30.273,-17.578
1578400997.503,29.785,37.109,29.297,24.902,12.695
1578400997.507,36.133,45.410,29.297,25.391,7.324
1578400997.511,33.691,46.387,29.297,29.785,-19.531
1578400997.515,27.344,41.016,29.297,32.227,66.895
1578400997.519,42.480,41.016,33.691,36.133,68.848
1578400997.523,50.781,42.480,37.109,34.180,9.766
1578400997.527,50.293,39.062,31.738,31.738,58.105
1578400997.530,45.898,40.527,25.879,33.203,34.668
1578400997.534,38.574,38.086,25.391,36.621,-12.695
1578400997.538,37.109,37.598,33.203,28.320,24.902
1578400997.542,42.480,37.109,38.574,28.320,52.246
1578400997.546,54.199,34.180,38.086,43.457,14.648
1578400997.550,48.828,37.109,40.039,42.969,22.461
1578400997.554,41.992,41.992,38.086,45.898,29.785
1578400997.558,32.715,40.039,36.133,42.480,57.129
1578400997.562,39.062,44.434,39.062,34.180,48.340
1578400997.566,48.828,49.316,41.992,41.504,41.016
1578400997.570,37.109,44.434,36.621,43.457,53.711
1578400997.573,24.414,41.992,35.645,40.039,46.387
1578400997.577,23.926,37.109,42.969,36.133,91.797
1578400997.581,37.109,38.574,41.504,35.645,34.668
1578400997.585,47.363,44.434,39.551,40.527,-2.441
1578400997.589,45.410,45.410,40.039,44.922,46.387
1578400997.593,41.992,42.969,40.527,43.457,34.180
1578400997.597,37.598,33.691,41.992,41.016,78.125
1578400997.601,46.387,37.598,42.969,45.898,92.773
1578400997.605,59.082,46.875,41.016,49.316,31.738
1578400997.609,53.711,35.645,37.598,50.293,66.895
1578400997.612,40.039,29.785,37.109,46.875,73.242
1578400997.616,37.598,37.109,35.645,35.645,37.598
1578400997.620,42.969,44.434,38.086,30.273,-0.977
1578400997.624,51.270,55.176,42.969,35.645,26.367
1578400997.628,44.922,53.223,40.527,34.180,77.148
1578400997.632,33.203,43.945,37.109,33.691,20.020
1578400997.636,29.297,43.945,36.621,38.086,-16.602
1578400997.640,27.832,46.875,31.738,31.250,11.719
1578400997.644,36.621,46.875,33.691,31.250,76.172
1578400997.648,40.039,43.457,41.016,36.621,83.008
1578400997.652,31.738,43.945,42.969,38.574,72.754
1578400997.655,20.996,42.480,39.062,22.461,44.922
1578400997.659,24.902,37.109,36.621,14.648,40.527
1578400997.663,33.203,41.016,42.480,21.484,60.547
1578400997.667,40.039,45.410,49.316,24.902,23.926
1578400997.671,37.109,38.574,48.340,27.344,-1.465
1578400997.675,21.973,42.480,37.109,21.484,55.664
1578400997.679,18.555,45.898,32.715,18.555,18.555
1578400997.683,25.879,36.621,39.551,20.020,-39.551
1578400997.687,32.227,37.109,38.574,27.832,18.066
1578400997.691,29.785,38.574,37.109,39.551,40.527
1578400997.695,25.391,34.180,38.086,38.086,30.273
1578400997.698,27.344,35.156,36.133,30.273,56.152
1578400997.702,37.598,40.039,42.480,26.367,32.715
1578400997.706,42.969,41.992,39.551,26.855,28.320
1578400997.710,38.086,43.457,31.738,34.180,22.949
1578400997.714,31.738,46.387,33.691,40.039,-19.531
1578400997.718,26.855,39.062,32.227,29.785,-42.480
1578400997.722,29.785,33.203,31.250,20.020,-19.531
1578400997.726,34.180,40.527,35.156,26.367,10.742
1578400997.730,37.109,37.598,35.156,36.133,28.809
1578400997.734,35.645,31.738,30.273,36.133,53.223
1578400997.737,25.879,37.109,34.180,34.668,62.500
1578400997.741,31.738,35.645,41.504,32.227,18.066
1578400997.745,44.434,37.109,38.574,27.832,-18.066
1578400997.749,42.969,45.410,39.062,34.180,31.250
1578400997.753,41.992,47.363,43.457,44.434,8.789
1578400997.757,43.457,45.410,39.062,40.527,13.184
1578400997.761,51.758,40.527,40.039,36.133,34.668
1578400997.765,58.105,39.551,36.133,37.598,41.992
1578400997.769,42.480,38.574,29.297,40.039,64.453
1578400997.773,26.855,34.180,32.715,43.945,66.895
1578400997.777,22.949,34.668,41.504,38.574,48.828
1578400997.780,20.996,32.227,41.016,27.832,38.574
1578400997.784,27.832,38.086,32.715,23.926,35.156
1578400997.788,31.250,43.945,34.180,25.391,40.039
1578400997.792,23.926,43.945,40.039,30.762,49.316
1578400997.796,22.949,43.945,44.434,36.133,53.223
1578400997.800,27.832,34.180,40.527,34.180,79.590
1578400997.804,37.598,39.062,43.945,40.527,48.340
1578400997.808,37.598,41.016,40.039,36.621,41.992
1578400997.812,31.250,35.156,27.832,31.738,35.645
1578400997.816,33.691,37.598,30.762,41.504,63.477
1578400997.820,38.086,34.180,39.062,40.039,44.434
1578400997.823,49.316,36.133,40.039,40.039,8.789
1578400997.827,54.199,46.875,38.086,50.293,15.137
1578400997.831,45.898,46.875,38.574,50.293,74.707
1578400997.835,41.504,42.480,38.086,41.016,119.141
1578400997.839,34.180,37.109,38.574,28.809,70.312
1578400997.843,42.969,42.969,37.109,34.668,67.383
1578400997.847,49.805,39.551,37.598,47.363,47.363
1578400997.851,39.551,25.391,38.086,35.156,57.617
1578400997.855,27.344,25.391,36.621,21.484,50.781
1578400997.859,25.391,22.949,38.086,24.414,59.082
1578400997.862,37.109,23.926,40.039,28.809,44.434
1578400997.866,36.621,30.273,39.551,26.367,10.254
1578400997.870,36.621,35.645,39.551,32.227,56.152
1578400997.874,35.645,33.691,37.109,39.551,70.312
1578400997.878,34.180,30.762,41.016,39.062,31.738
1578400997.882,42.480,36.133,43.945,36.133,-16.602
1578400997.886,47.852,38.086,39.551,39.062,-28.809
1578400997.890,44.922,38.086,36.621,46.875,-19.531
1578400997.894,36.133,36.133,36.133,43.945,6.348
1578400997.898,31.250,35.156,36.621,35.156,-0.488
1578400997.902,43.945,41.992,37.109,29.785,-18.066
1578400997.905,46.875,43.945,41.016,26.855,16.602
1578400997.909,40.527,40.527,43.457,32.227,46.387
1578400997.913,37.109,36.133,41.992,39.551,83.496
1578400997.917,31.738,33.691,33.203,42.480,62.500
1578400997.921,35.645,39.551,33.691,40.527,-38.574
1578400997.925,43.457,45.898,41.016,33.203,-51.758
1578400997.929,45.410,45.410,39.062,36.621,15.137
1578400997.933,37.109,40.039,39.062,38.086,24.902
1578400997.937,26.855,40.039,39.062,33.203,22.949
1578400997.941,24.902,34.668,30.762,26.855,19.531
1578400997.945,34.180,37.109,29.785,26.367,11.719
1578400997.948,40.527,41.992,29.297,34.180,44.434
1578400997.952,30.762,35.645,28.809,37.598,47.852
1578400997.956,23.926,36.621,32.715,35.156,31.738
1578400997.960,33.203,40.039,25.879,27.832,11.230
1578400997.964,41.504,38.574,28.809,25.391,-17.090
1578400997.968,42.480,37.109,37.109,27.832,31.250
1578400997.972,41.992,34.180,39.062,33.203,99.609
1578400997.976,31.738,27.344,42.969,33.203,69.824
1578400997.980,32.227,28.809,43.945,30.273,65.430
1578400997.984,41.504,34.180,42.480,27.832,22.461
1578400997.987,46.387,35.645,40.039,39.551,-13.184
1578400997.991,42.480,37.109,38.574,54.688,94.238
1578400997.995,27.344,32.715,33.203,46.875,94.238
1578400997.999,21.484,26.367,30.273,35.645,42.969
1578400998.003,31.250,31.250,35.645,30.762,61.035
1578400998.007,37.109,31.250,41.504,31.738,82.031
1578400998.011,36.133,29.297,37.598,43.457,69.824
1578400998.015,32.227,31.738,38.574,43.945,48.340
1578400998.019,30.762,32.715,49.805,39.551,76.172
1578400998.023,43.457,37.598,52.246,40.039,43.457
1578400998.027,53.223,36.621,45.898,39.062,21.973
1578400998.030,55.176,36.133,44.434,41.992,19.043
1578400998.034,49.805,44.922,49.805,53.223,34.180
1578400998.038,42.480,42.480,37.109,48.828,64.453
1578400998.042,46.387,33.691,31.250,39.551,64.941
1578400998.046,52.246,33.691,38.574,41.016,57.617
1578400998.050,42.480,38.086,31.738,38.574,54.199
1578400998.054,28.809,35.156,29.785,37.598,28.809
1578400998.058,23.926,35.156,33.691,33.203,43.457
1578400998.062,27.832,36.621,34.180,33.691,45.898
1578400998.066,33.691,33.203,32.227,38.086,18.066
1578400998.070,31.250,35.156,33.691,40.039,6.836
1578400998.073,30.762,27.832,32.715,39.551,-9.277
1578400998.077,23.438,23.438,28.809,30.762,12.695
1578400998.081,24.414,30.762,30.762,25.879,44.434
1578400998.085,38.574,31.738,27.832,27.832,37.598
1578400998.089,41.016,35.645,32.227,29.785,49.805
1578400998.093,30.273,36.133,34.668,30.273,-4.395
1578400998.097,22.949,35.156,29.297,34.668,-16.602
1578400998.101,22.949,39.551,32.227,27.832,57.129
1578400998.105,35.645,35.156,38.086,31.738,63.477
1578400998.109,42.480,32.227,38.086,39.062,29.297
1578400998.112,35.645,32.715,34.180,39.062,28.809
1578400998.116,25.391,24.414,36.133,33.691,30.762
1578400998.120,24.902,23.926,33.691,22.461,-35.645
1578400998.124,38.086,32.227,25.391,26.367,11.230
1578400998.128,55.664,22.461,32.227,47.363,79.590
1578400998.132,45.898,25.391,46.875,50.781,22.461
1578400998.136,6.836,46.387,47.852,19.531,43.457
1578400998.140,-4.883,46.387,47.852,3.418,63.477
1578400998.144,-2.930,45.410,48.828,-0.977,48.340
1578400998.148,-10.254,46.875,46.875,-11.230,64.453
1578400998.152,-15.625,39.551,48.828,-10.742,51.270
1578400998.155,-15.137,41.504,46.875,-10.742,0.488
1578400998.159,-28.809,43.457,53.223,-29.785,7.324
1578400998.163,-36.621,34.180,56.152,-44.434,40.527
1578400998.167,-34.180,36.133,56.152,-43.457,34.668
1578400998.171,-42.969,42.480,60.059,-40.527,22.461
1578400998.175,-37.109,41.504,55.664,-29.297,2.930
1578400998.179,-43.945,40.039,55.664,-37.598,71.777
1578400998.183,-34.180,48.828,59.570,-29.785,93.750
1578400998.187,-9.277,47.852,60.059,-16.602,39.062
1578400998.191,-19.043,39.062,52.246,-17.578,23.926
1578400998.195,-21.484,37.598,48.828,-5.371,42.480
1578400998.198,-10.742,33.691,51.758,-0.977,62.988
1578400998.202,-0.977,34.180,44.434,-5.371,41.016
1578400998.206,13.184,36.621,44.922,6.836,79.590
1578400998.210,14.648,29.785,47.852,22.461,57.617
1578400998.214,11.230,32.227,44.434,28.809,27.832
1578400998.218,16.602,35.156,44.434,27.832,39.551
1578400998.222,27.344,28.809,42.969,20.020,41.992
1578400998.226,39.551,30.273,40.039,19.043,1.953
1578400998.230,39.062,37.109,39.551,23.926,19.531
1578400998.234,42.480,41.504,43.945,35.645,68.848
1578400998.237,39.062,33.203,45.410,36.621,52.246
1578400998.241,34.180,29.297,40.039,31.250,63.965
1578400998.245,41.992,34.668,41.016,30.762,57.129
1578400998.249,42.969,38.574,43.945,41.504,60.059
1578400998.253,35.156,42.480,39.062,44.434,83.984
1578400998.257,33.691,45.898,37.109,39.062,68.359
1578400998.261,36.621,43.457,42.969,42.969,17.578
1578400998.265,42.969,36.133,47.363,46.875,46.387
1578400998.269,54.199,42.480,44.922,51.758,29.297
1578400998.273,42.969,43.945,45.898,54.199,-19.531
1578400998.277,24.902,36.621,43.457,52.246,1.465
1578400998.280,28.809,34.668,39.551,44.922,41.992
1578400998.284,33.691,35.156,43.945,37.598,69.824
1578400998.288,39.062,38.086,43.457,40.039,80.566
1578400998.292,41.992,36.133,42.480,47.363,28.809
1578400998.296,37.109,33.203,43.457,45.898,-23.438
1578400998.300,31.250,34.180,33.203,30.762,-43.457
1578400998.304,40.527,41.504,30.273,24.414,-17.578
1578400998.308,54.688,41.992,34.668,25.879,14.648
1578400998.312,50.293,40.527,34.668,29.785,-6.348
1578400998.316,45.898,43.457,37.109,32.227,19.531
1578400998.320,54.199,49.316,38.086,31.250,41.504
1578400998.323,60.547,44.922,32.715,24.414,12.695
1578400998.327,54.199,40.527,35.156,29.297,-0.488
1578400998.331,28.320,42.969,36.133,43.945,5.859
1578400998.335,20.020,46.387,36.621,46.875,2.441
1578400998.339,30.273,48.828,38.574,44.434,28.809
1578400998.343,39.551,42.480,37.109,37.109,36.621
1578400998.347,39.062,40.039,35.645,25.391,10.254
1578400998.351,34.668,46.387,41.016,36.133,33.691
1578400998.355,30.762,50.781,45.898,46.387,29.297
1578400998.359,28.320,52.734,36.133,38.086,35.156
1578400998.362,37.598,51.270,33.203,28.320,44.434
1578400998.366,45.410,44.434,41.016,25.391,4.883
1578400998.370,48.340,45.898,44.922,43.457,-16.602
1578400998.374,42.480,43.945,46.875,47.363,2.930
