timestamps,TP9,AF7,AF8,TP10,Right AUX
1578401571.652,37.598,34.668,35.645,33.203,16.602
1578401571.655,43.945,37.598,37.109,38.086,57.129
1578401571.659,44.922,38.086,45.410,47.363,92.773
1578401571.663,37.109,42.969,51.270,50.293,65.918
1578401571.667,32.227,44.922,42.969,43.945,12.695
1578401571.671,32.715,39.551,32.715,32.715,0.488
1578401571.675,31.738,39.062,40.039,28.809,64.453
1578401571.679,29.297,39.062,49.316,30.762,66.406
1578401571.683,28.809,35.645,47.852,36.133,8.789
1578401571.687,27.344,35.156,47.363,36.621,-8.789
1578401571.691,28.320,39.551,45.410,33.691,31.738
1578401571.694,32.227,39.062,41.992,31.250,49.805
1578401571.698,33.691,35.156,40.527,34.668,-12.695
1578401571.702,26.855,31.738,40.527,33.691,-32.227
1578401571.706,27.832,37.109,38.574,27.832,15.625
1578401571.710,35.156,35.645,32.715,21.484,-3.906
1578401571.714,40.527,38.574,41.504,22.949,-15.137
1578401571.718,41.504,43.945,43.945,29.785,23.926
1578401571.722,32.227,34.180,28.809,30.762,19.531
1578401571.726,20.020,33.691,35.645,28.809,54.688
1578401571.730,22.949,38.574,44.434,27.832,56.152
1578401571.734,40.527,40.527,40.527,32.715,35.645
1578401571.737,46.387,39.062,41.992,41.504,32.715
1578401571.741,33.203,37.109,46.875,44.434,44.922
1578401571.745,10.742,38.574,49.316,30.762,61.523
1578401571.749,15.625,37.598,42.480,29.297,14.160
1578401571.753,24.902,37.598,39.062,30.762,14.160
1578401571.757,32.227,43.457,48.340,41.016,38.574
1578401571.761,39.551,46.875,57.617,52.734,68.359
1578401571.765,25.879,33.691,49.316,35.156,59.570
1578401571.769,26.855,22.949,36.621,32.227,32.715
1578401571.773,38.574,32.715,32.715,35.645,-18.066
1578401571.777,43.457,39.551,31.738,35.156,-17.578
1578401571.780,40.039,37.109,37.598,38.086,16.113
1578401571.784,34.180,35.156,38.574,38.086,5.859
1578401571.788,35.156,33.691,35.645,32.715,39.062
1578401571.792,48.340,38.574,43.945,34.180,24.902
1578401571.796,53.223,44.434,48.340,33.203,2.930
1578401571.800,41.504,40.039,41.992,31.738,37.598
1578401571.804,31.738,37.109,38.574,34.180,39.062
1578401571.808,31.250,29.297,35.156,36.621,8.789
1578401571.812,31.738,26.855,28.809,35.645,24.902
1578401571.816,34.668,35.156,34.668,34.180,6.836
1578401571.819,33.691,38.086,38.574,40.039,26.367
1578401571.823,28.809,41.504,37.598,42.480,75.195
1578401571.827,28.809,42.480,42.480,38.574,54.199
1578401571.831,34.668,42.969,43.457,34.180,20.020
1578401571.835,42.480,43.457,40.527,32.715,9.766
1578401571.839,39.551,38.086,42.480,34.668,9.766
1578401571.843,27.344,32.715,41.016,36.133,68.848
1578401571.847,23.438,31.738,39.551,30.762,89.844
1578401571.851,29.297,29.785,32.227,22.461,91.309
1578401571.855,40.527,31.250,30.762,30.273,60.059
1578401571.859,42.480,30.762,43.945,39.062,51.758
1578401571.862,35.156,34.180,46.875,35.645,42.480
1578401571.866,28.320,40.527,45.410,29.297,85.938
1578401571.870,28.809,38.574,50.781,19.531,81.055
1578401571.874,38.574,45.410,52.246,21.973,56.641
1578401571.878,32.227,43.945,43.945,23.438,51.270
1578401571.882,14.648,35.645,39.062,16.113,37.109
1578401571.886,12.207,32.715,35.645,15.137,69.336
1578401571.890,15.625,31.250,30.273,12.695,49.316
1578401571.894,20.996,32.715,41.016,11.230,31.738
1578401571.898,30.762,37.109,48.340,20.996,50.781
1578401571.902,28.320,37.598,47.852,28.809,63.965
1578401571.905,22.461,33.691,41.016,26.855,50.781
1578401571.909,20.508,41.016,35.645,14.648,16.113
1578401571.913,30.273,48.828,41.992,9.277,42.480
1578401571.917,36.621,45.410,41.992,18.066,74.219
1578401571.921,28.320,40.527,41.016,26.367,41.016
1578401571.925,19.043,40.527,40.039,25.391,-27.344
1578401571.929,20.996,33.203,40.039,18.555,3.906
1578401571.933,25.879,37.598,41.016,17.578,81.543
1578401571.937,29.297,51.758,48.340,24.902,23.438
1578401571.941,26.367,53.223,49.316,28.320,-20.996
1578401571.944,19.531,51.758,41.016,27.344,6.348
1578401571.948,21.484,47.363,44.434,19.531,24.902
1578401571.952,29.297,39.551,49.316,12.695,-7.812
1578401571.956,34.180,44.434,51.270,14.160,27.832
1578401571.960,33.203,51.270,54.688,18.555,42.480
1578401571.964,24.902,51.270,48.828,23.926,-19.531
1578401571.968,19.531,41.992,42.480,21.973,-50.293
1578401571.972,27.344,36.133,48.828,22.949,-24.414
1578401571.976,30.273,36.133,47.852,21.973,-4.883
1578401571.980,22.949,37.109,41.992,22.949,54.199
1578401571.984,25.391,41.992,43.945,33.203,16.602
1578401571.987,34.668,41.504,45.898,37.109,-22.461
1578401571.991,36.621,48.828,47.852,24.902,11.230
1578401571.995,29.297,47.363,47.852,14.160,8.789
1578401571.999,19.043,37.598,44.434,20.508,33.691
1578401572.003,13.672,41.992,43.457,23.438,62.012
1578401572.007,13.184,43.457,41.992,22.461,66.406
1578401572.011,13.672,34.180,39.062,21.973,63.965
1578401572.015,20.508,33.691,31.250,26.855,113.770
1578401572.019,20.020,36.133,33.203,35.156,87.891
1578401572.023,12.207,31.738,37.109,35.645,18.555
1578401572.027,11.230,36.133,29.297,31.250,16.602
1578401572.030,18.555,40.527,35.645,27.832,60.059
1578401572.034,25.879,28.809,33.691,22.461,65.430
1578401572.038,34.668,31.250,34.180,25.879,-3.418
1578401572.042,30.762,38.086,40.527,31.250,-13.184
1578401572.046,26.367,35.645,41.504,35.156,19.043
1578401572.050,34.668,43.945,43.945,31.738,34.180
1578401572.054,42.480,49.805,39.062,28.809,40.039
1578401572.058,42.480,43.945,31.250,32.715,49.316
1578401572.062,37.109,43.945,32.227,33.203,76.172
1578401572.066,35.156,45.410,38.086,33.203,89.844
1578401572.069,39.062,41.504,37.598,31.738,53.223
1578401572.073,49.805,32.227,30.273,27.832,15.137
1578401572.077,59.082,30.762,33.203,31.738,6.836
1578401572.081,45.898,29.297,38.574,30.273,-1.953
1578401572.085,24.902,27.344,37.109,29.297,-12.695
1578401572.089,21.484,33.691,41.992,31.738,12.695
1578401572.093,20.996,36.621,38.574,26.855,30.762
1578401572.097,21.973,40.527,32.715,26.855,55.664
1578401572.101,23.438,40.527,33.203,35.645,87.891
1578401572.105,19.531,37.109,34.668,33.203,79.102
1578401572.109,14.160,35.156,29.785,19.043,31.738
1578401572.112,21.484,36.621,33.203,23.926,27.344
1578401572.116,40.527,36.621,35.645,41.016,38.574
1578401572.120,47.363,43.945,24.902,43.457,55.664
1578401572.124,25.391,43.945,32.227,20.508,17.578
1578401572.128,14.648,36.621,38.574,9.277,0.000
1578401572.132,14.648,35.156,28.809,2.930,33.203
1578401572.136,18.555,34.668,24.414,7.324,34.668
1578401572.140,23.926,41.992,25.391,16.113,57.617
1578401572.144,14.160,36.133,27.344,10.254,62.500
1578401572.148,19.531,28.809,30.273,14.648,52.246
1578401572.152,30.762,36.621,31.738,7.812,39.551
1578401572.155,43.457,43.945,36.133,9.277,32.715
1578401572.159,45.898,40.039,37.109,21.973,48.340
1578401572.163,32.715,26.855,25.391,20.996,2.930
1578401572.167,25.879,28.320,21.973,18.066,0.000
1578401572.171,27.832,30.762,26.855,15.137,2.930
1578401572.175,32.227,32.715,29.785,18.555,-3.906
1578401572.179,38.574,39.062,25.879,25.879,28.320
1578401572.183,34.668,39.062,24.902,28.320,34.180
1578401572.187,29.297,37.598,27.832,28.320,28.320
1578401572.191,32.227,38.574,25.391,29.785,4.883
1578401572.194,39.551,44.434,28.809,34.668,-0.488
1578401572.198,39.062,42.969,28.320,38.086,35.156
1578401572.202,30.273,34.180,22.461,39.551,41.504
1578401572.206,29.785,33.691,26.855,41.016,52.734
1578401572.210,34.668,39.062,33.203,41.016,46.875
1578401572.214,40.039,43.945,33.691,36.621,55.176
1578401572.218,41.992,49.316,30.762,34.668,50.781
1578401572.222,37.109,49.805,31.738,41.016,8.301
1578401572.226,33.691,46.387,33.203,42.969,-16.602
1578401572.230,37.109,47.852,33.203,38.574,-1.953
1578401572.234,41.016,44.434,31.250,35.645,22.461
1578401572.237,48.828,45.898,38.574,43.945,10.742
1578401572.241,44.922,43.945,41.016,43.457,21.973
1578401572.245,34.668,41.504,29.785,34.668,-4.395
1578401572.249,31.250,41.992,39.062,33.691,17.578
1578401572.253,37.109,43.945,35.645,35.645,22.461
1578401572.257,37.109,46.387,27.344,30.762,3.906
1578401572.261,24.414,40.039,36.621,25.879,50.293
1578401572.265,21.484,42.480,42.969,30.273,63.477
1578401572.269,23.438,51.270,40.527,27.832,39.551
1578401572.273,26.855,51.758,42.969,21.973,24.902
1578401572.277,27.832,43.945,41.992,17.578,17.090
1578401572.280,24.902,40.527,39.062,21.973,18.066
1578401572.284,18.555,40.039,38.086,30.273,58.105
1578401572.288,23.438,38.086,36.133,24.414,98.633
1578401572.292,33.203,41.992,38.086,23.438,85.938
1578401572.296,34.180,45.410,38.086,31.250,55.176
1578401572.300,32.715,49.805,37.109,32.715,31.250
1578401572.304,25.879,47.852,36.133,29.785,7.324
1578401572.308,26.855,48.828,41.504,30.762,53.223
1578401572.312,38.574,50.293,48.340,25.879,12.695
1578401572.316,40.039,41.992,36.621,14.648,-71.289
1578401572.319,33.203,37.109,28.809,16.113,-20.020
1578401572.323,27.832,42.969,35.645,26.855,57.129
1578401572.327,29.297,46.387,37.109,31.738,76.172
1578401572.331,30.273,32.715,39.062,20.508,54.199
1578401572.335,29.785,35.645,43.457,11.719,31.738
1578401572.339,27.344,47.363,43.457,22.461,18.555
1578401572.343,20.020,47.363,41.504,26.367,65.918
1578401572.347,15.137,48.828,43.457,21.973,108.887
1578401572.351,20.020,49.805,43.457,24.902,74.219
1578401572.355,26.855,51.270,47.363,30.762,1.465
1578401572.359,21.484,40.039,42.480,31.738,0.000
1578401572.362,15.625,32.227,35.645,28.320,34.180
1578401572.366,20.020,40.039,42.969,28.320,9.277
1578401572.370,24.902,38.574,45.410,26.367,-38.574
1578401572.374,34.668,32.715,41.016,32.715,43.457
1578401572.378,42.480,40.527,42.969,37.109,86.914
1578401572.382,32.227,43.945,41.504,26.855,53.711
1578401572.386,22.949,45.410,47.852,24.414,68.848
1578401572.390,29.297,47.363,54.199,25.391,80.078
1578401572.394,30.273,41.992,43.457,20.508,55.176
1578401572.398,20.508,38.574,36.621,20.508,-12.695
1578401572.402,22.461,38.574,36.133,28.320,-5.859
1578401572.405,25.879,37.109,35.645,34.180,33.691
1578401572.409,24.902,36.621,33.691,29.785,3.906
1578401572.413,36.621,38.574,34.180,26.855,47.363
1578401572.417,41.504,37.109,37.109,27.344,48.340
1578401572.421,35.645,37.109,38.574,29.297,31.738
1578401572.425,33.203,38.574,40.527,31.250,67.871
1578401572.429,32.715,37.109,45.410,28.320,22.949
1578401572.433,34.180,39.062,52.246,28.320,7.812
1578401572.437,40.039,40.527,54.199,36.133,68.359
1578401572.441,32.715,40.039,41.504,39.551,110.840
1578401572.444,20.020,34.668,36.621,37.109,52.734
1578401572.448,17.578,31.738,43.457,31.738,54.688
1578401572.452,24.902,39.062,41.016,29.785,34.180
1578401572.456,35.156,37.598,35.645,32.715,5.859
1578401572.460,37.598,38.086,39.062,31.250,57.129
1578401572.464,33.203,40.039,43.945,30.273,49.805
1578401572.468,38.086,35.645,46.875,39.062,12.695
1578401572.472,44.434,38.086,47.852,40.039,2.930
1578401572.476,36.133,45.410,41.504,25.391,41.992
1578401572.480,28.809,41.992,37.598,25.879,67.383
1578401572.484,21.973,36.621,38.086,28.320,59.082
1578401572.487,21.484,35.645,37.109,23.438,51.758
1578401572.491,27.832,37.109,39.551,22.949,22.461
1578401572.495,26.855,37.109,40.527,20.996,50.781
1578401572.499,31.738,40.527,37.598,29.297,77.637
1578401572.503,32.227,41.016,40.527,30.273,67.383
1578401572.507,25.391,32.715,40.527,20.508,34.668
1578401572.511,29.297,35.645,36.133,20.508,0.488
1578401572.515,33.691,35.645,30.273,18.066,52.246
1578401572.519,32.227,38.086,37.109,24.902,108.398
1578401572.523,20.996,37.598,45.898,31.250,82.520
1578401572.527,14.160,29.297,45.410,22.949,23.438
1578401572.530,19.043,30.762,43.457,17.090,-11.230
1578401572.534,29.297,35.645,41.016,27.832,44.922
1578401572.538,35.156,33.203,42.969,34.668,72.266
1578401572.542,33.691,33.691,46.387,36.133,50.781
1578401572.546,30.273,35.156,41.016,31.250,68.848
1578401572.550,22.461,29.297,38.086,14.160,44.922
1578401572.554,25.879,32.227,37.598,15.625,60.059
1578401572.558,35.645,37.109,43.457,23.438,77.148
1578401572.562,26.367,36.133,50.293,26.855,17.578
1578401572.566,22.461,39.551,49.805,30.273,-23.926
1578401572.569,23.438,36.621,38.574,21.484,-42.480
1578401572.573,28.320,40.039,34.180,17.578,9.766
1578401572.577,40.039,44.434,44.434,24.902,0.000
1578401572.581,30.273,37.109,40.039,23.438,5.371
1578401572.585,16.113,31.250,34.668,18.066,72.754
1578401572.589,9.766,26.367,38.086,13.672,50.781
1578401572.593,16.602,29.297,42.969,18.555,-5.371
1578401572.597,25.391,38.574,45.410,23.438,0.488
1578401572.601,21.484,38.086,44.922,22.461,40.527
1578401572.605,21.973,40.039,43.457,30.762,34.668
1578401572.609,17.578,34.180,37.598,20.996,39.551
1578401572.612,16.113,27.344,34.180,8.789,30.273
1578401572.616,14.648,26.855,30.762,11.719,6.836
1578401572.620,8.301,30.762,30.273,9.766,-11.230
1578401572.624,7.812,34.180,37.109,11.719,10.254
1578401572.628,12.695,28.809,36.133,14.160,25.391
1578401572.632,25.391,28.809,39.062,21.973,-18.066
1578401572.636,29.785,30.762,41.016,25.879,42.969
1578401572.640,22.461,35.156,40.527,29.785,85.449
1578401572.644,21.484,37.109,42.480,36.621,49.805
1578401572.648,16.602,35.645,45.410,31.250,79.102
1578401572.652,15.137,35.156,34.668,24.414,-1.953
1578401572.655,23.926,36.133,28.809,26.367,-60.547
1578401572.659,20.020,35.645,41.016,21.973,-4.883
1578401572.663,20.996,38.086,40.039,23.438,43.945
1578401572.667,23.438,37.598,34.180,26.855,48.340
1578401572.671,26.367,26.367,35.156,27.344,20.996
1578401572.675,37.109,30.762,41.016,27.832,-15.625
1578401572.679,43.457,37.598,51.270,32.715,23.438
1578401572.683,36.133,37.598,48.828,40.039,39.062
1578401572.687,21.484,33.691,41.016,36.621,26.367
1578401572.691,20.508,30.762,37.109,34.180,36.133
1578401572.694,28.809,31.738,33.203,31.250,4.883
1578401572.698,36.133,38.574,28.320,32.715,59.082
1578401572.702,34.668,41.504,31.738,38.086,94.727
1578401572.706,25.391,38.086,40.527,30.762,41.504
1578401572.710,20.020,43.457,40.039,19.531,21.973
1578401572.714,32.227,49.805,43.945,25.391,20.508
1578401572.718,41.016,47.852,43.945,31.738,13.672
1578401572.722,31.738,43.945,36.133,26.855,21.484
1578401572.726,27.344,41.504,34.180,27.344,-7.324
1578401572.730,31.250,36.133,40.527,33.691,-17.578
1578401572.734,42.969,36.621,33.691,32.715,16.113
1578401572.737,52.734,44.922,30.273,38.574,8.301
1578401572.741,48.340,41.504,41.016,41.992,16.602
1578401572.745,40.527,34.180,43.945,38.574,16.602
1578401572.749,44.434,33.691,49.316,41.016,13.672
1578401572.753,50.293,35.645,43.457,35.645,17.090
1578401572.757,48.340,36.133,35.156,33.203,19.043
1578401572.761,41.504,33.691,40.039,37.598,5.371
1578401572.765,38.574,31.250,40.039,39.062,44.922
1578401572.769,35.645,33.691,36.621,39.551,83.984
1578401572.773,33.203,38.086,35.645,30.762,56.152
1578401572.777,35.645,34.668,40.039,31.738,58.594
1578401572.780,34.668,39.551,42.969,41.016,64.453
1578401572.784,29.297,40.527,39.062,43.457,54.199
1578401572.788,23.438,30.762,38.574,38.086,11.719
1578401572.792,28.320,33.203,44.434,35.156,25.391
1578401572.796,40.039,39.062,42.480,36.133,75.195
1578401572.800,44.434,41.992,39.062,41.016,49.316
1578401572.804,35.156,41.016,40.527,45.410,51.758
1578401572.808,29.297,35.156,42.480,39.551,65.430
1578401572.812,30.273,34.668,41.504,31.250,36.133
1578401572.816,31.738,34.180,43.945,27.344,-8.301
1578401572.819,34.180,33.691,43.457,31.738,12.207
1578401572.823,34.668,39.551,41.016,35.156,43.945
1578401572.827,32.227,40.039,40.039,29.297,6.836
1578401572.831,36.621,39.551,37.109,35.156,-9.277
1578401572.835,45.410,47.852,43.945,47.363,20.996
1578401572.839,24.902,45.410,42.480,26.855,105.469
1578401572.843,8.301,37.109,34.180,22.461,72.754
1578401572.847,5.371,33.691,32.715,21.484,-8.789
1578401572.851,7.812,35.156,28.809,6.836,72.266
1578401572.855,15.625,46.387,27.344,9.766,98.633
1578401572.859,18.555,45.410,32.227,12.695,59.082
1578401572.862,11.719,41.992,37.598,17.578,38.574
1578401572.866,1.953,41.016,37.109,23.926,-6.836
1578401572.870,14.160,45.898,44.434,31.250,1.953
1578401572.874,30.762,51.270,52.246,32.227,34.668
1578401572.878,26.855,43.457,40.039,24.902,32.715
1578401572.882,20.996,39.062,24.902,23.926,16.113
1578401572.886,22.461,35.645,33.203,25.391,59.570
1578401572.890,30.273,39.551,41.016,20.020,38.574
1578401572.894,36.133,45.898,34.668,16.602,10.742
1578401572.898,38.574,41.504,46.875,27.344,21.484
1578401572.902,37.109,40.039,47.852,31.738,84.473
1578401572.905,25.391,43.457,36.133,25.391,105.469
1578401572.909,29.785,46.875,41.992,23.926,36.133
1578401572.913,38.086,44.922,35.645,20.508,20.020
1578401572.917,39.551,37.598,25.879,27.344,-8.301
1578401572.921,43.457,41.504,29.785,34.180,-29.785
1578401572.925,37.598,42.969,31.250,28.809,46.387
1578401572.929,37.109,37.109,33.691,24.902,55.664
1578401572.933,42.480,41.504,39.551,24.902,3.906
1578401572.937,39.551,46.875,46.387,26.367,-6.348
1578401572.941,35.156,47.363,54.199,35.156,17.578
1578401572.944,24.902,44.434,42.480,32.715,57.129
1578401572.948,18.555,43.945,33.691,21.973,3.418
1578401572.952,21.484,41.992,35.645,23.926,-36.621
1578401572.956,30.762,41.504,38.086,33.691,-6.836
1578401572.960,31.738,44.922,41.992,37.109,-8.789
1578401572.964,22.949,42.969,36.133,32.715,11.230
1578401572.968,26.367,47.363,40.039,37.109,7.324
1578401572.972,33.691,51.270,44.922,40.527,6.836
1578401572.976,34.180,49.316,44.922,35.156,68.359
1578401572.980,31.738,39.062,41.992,34.668,69.824
1578401572.984,24.414,31.250,40.527,36.621,45.898
1578401572.987,18.555,36.621,39.551,30.762,53.223
1578401572.991,28.320,39.551,38.086,31.738,23.438
1578401572.995,43.457,43.945,43.945,36.133,5.371
1578401572.999,41.016,44.922,41.992,35.156,16.602
1578401573.003,26.855,39.062,37.598,33.691,67.383
1578401573.007,21.973,36.133,38.574,28.809,100.098
1578401573.011,24.902,41.504,38.086,28.809,94.238
1578401573.015,24.414,46.875,36.133,29.297,97.656
1578401573.019,24.902,42.480,32.715,31.738,61.035
1578401573.023,26.367,37.109,30.273,37.598,44.922
1578401573.027,22.461,37.598,41.504,34.668,60.059
1578401573.030,26.367,35.156,42.969,30.273,74.219
1578401573.034,27.344,28.320,26.855,22.949,75.195
1578401573.038,27.344,33.203,27.832,21.484,57.129
1578401573.042,25.391,40.039,34.180,28.809,44.434
1578401573.046,21.973,42.969,35.645,31.250,0.977
1578401573.050,27.344,45.410,33.691,29.785,-23.438
1578401573.054,36.621,43.945,33.203,28.320,40.527
1578401573.058,45.898,46.387,33.203,31.738,99.121
1578401573.062,51.270,43.457,40.039,47.363,92.773
1578401573.066,43.457,44.434,55.664,48.340,34.180
1578401573.069,26.855,41.504,44.922,26.367,24.414
1578401573.073,18.066,34.668,34.180,11.230,24.414
1578401573.077,25.391,39.551,33.691,20.020,40.039
1578401573.081,34.668,42.969,34.668,32.227,52.246
1578401573.085,19.531,41.992,38.574,19.043,42.969
1578401573.089,19.531,42.969,33.691,20.020,31.250
1578401573.093,27.344,41.504,34.668,21.973,-3.418
1578401573.097,24.902,40.039,39.062,16.602,17.578
1578401573.101,31.250,41.504,42.969,35.156,50.781
1578401573.105,22.949,48.340,49.805,33.691,78.125
1578401573.109,14.648,37.598,38.086,17.090,20.508
1578401573.112,25.879,32.227,29.297,18.555,-2.930
1578401573.116,35.156,42.480,40.039,27.344,87.891
1578401573.120,31.738,41.992,39.551,34.668,88.379
1578401573.124,33.203,36.621,35.645,40.039,47.363
1578401573.128,36.621,35.156,39.062,31.250,42.480
1578401573.132,33.691,37.109,36.133,21.484,18.555
1578401573.136,38.574,42.969,34.668,26.367,31.250
1578401573.140,40.039,41.992,37.598,29.785,65.430
1578401573.144,30.762,35.645,36.133,31.250,62.500
1578401573.148,22.949,34.668,31.738,29.785,38.574
1578401573.152,26.367,41.504,32.227,27.832,30.762
1578401573.155,28.320,38.574,31.738,28.809,58.105
1578401573.159,31.250,35.645,37.109,34.668,88.379
1578401573.163,30.273,36.133,38.574,35.645,103.516
1578401573.167,24.414,25.879,28.320,31.250,78.125
1578401573.171,30.762,27.832,34.668,30.762,34.668
1578401573.175,39.062,35.156,42.969,32.715,34.180
1578401573.179,41.992,41.504,39.062,34.668,11.230
1578401573.183,32.227,40.527,40.039,32.227,26.855
1578401573.187,19.043,36.621,37.598,24.902,77.148
1578401573.191,22.461,41.992,33.203,25.879,77.637
1578401573.194,26.855,35.156,28.809,26.367,51.758
1578401573.198,23.926,28.809,26.367,29.297,38.574
1578401573.202,24.902,35.645,32.715,38.086,47.852
1578401573.206,24.414,41.016,43.457,35.156,23.926
1578401573.210,21.973,42.480,41.016,26.367,2.441
1578401573.214,24.902,41.016,38.086,25.879,21.973
1578401573.218,31.738,31.250,43.457,33.691,12.695
1578401573.222,31.738,38.574,44.922,41.504,29.297
1578401573.226,21.973,48.340,40.527,37.598,29.297
1578401573.230,21.484,48.340,33.691,27.832,20.996
1578401573.234,25.879,45.410,38.574,21.484,47.363
1578401573.237,27.832,42.480,36.621,23.438,13.672
1578401573.241,25.879,47.363,33.203,30.762,-2.930
1578401573.245,23.438,48.828,34.668,30.273,41.504
1578401573.249,27.832,43.457,41.016,30.762,60.547
1578401573.253,32.715,44.922,49.805,30.273,41.016
1578401573.257,39.062,53.711,48.340,32.227,32.715
1578401573.261,34.180,47.363,41.992,29.785,61.523
1578401573.265,20.996,39.551,40.527,17.090,82.520
1578401573.269,21.973,39.551,38.574,16.602,41.504
1578401573.273,29.785,41.504,30.762,18.555,14.160
1578401573.277,31.738,45.410,32.715,16.113,79.102
1578401573.280,32.227,47.852,36.621,23.438,113.770
1578401573.284,31.250,47.363,39.551,36.621,50.293
1578401573.288,26.367,41.504,44.434,35.645,30.762
1578401573.292,27.344,43.457,41.992,26.367,-15.625
1578401573.296,34.668,51.758,37.598,23.438,-52.246
1578401573.300,39.551,52.734,43.945,35.645,-12.207
1578401573.304,41.016,41.992,41.016,47.363,4.395
1578401573.308,38.086,41.504,29.297,33.691,12.207
1578401573.312,24.902,51.270,30.762,5.859,-2.930
1578401573.316,21.484,44.434,37.109,5.859,-15.625
1578401573.319,33.203,41.992,40.039,27.832,1.465
1578401573.323,28.809,48.340,40.039,27.344,27.344
1578401573.327,22.949,46.875,36.621,28.320,24.902
1578401573.331,29.297,48.828,32.227,26.855,5.371
1578401573.335,43.945,46.875,40.039,27.832,-0.488
1578401573.339,44.922,44.922,37.109,29.297,27.832
1578401573.343,41.504,53.711,32.227,22.949,8.789
1578401573.347,43.457,51.270,34.180,27.832,34.668
1578401573.351,32.715,43.945,25.879,19.531,77.148
1578401573.355,30.762,47.852,22.949,19.043,64.941
1578401573.359,35.645,44.434,17.090,29.785,67.871
1578401573.362,36.133,43.457,17.578,30.762,88.379
1578401573.366,35.645,47.363,27.344,26.855,89.355
1578401573.370,33.203,46.387,31.250,21.973,23.926
1578401573.374,39.551,44.922,31.250,23.438,11.230
1578401573.378,46.387,40.039,28.320,28.809,24.414
1578401573.382,39.062,30.762,25.879,25.391,28.809
1578401573.386,31.738,32.715,30.762,22.461,27.832
1578401573.390,29.785,33.691,33.203,26.367,23.926
1578401573.394,35.645,34.668,31.738,31.250,74.219
1578401573.398,42.969,40.527,37.598,39.062,73.242
1578401573.402,41.504,39.062,41.992,40.527,33.203
1578401573.405,38.574,34.668,39.551,36.621,30.762
1578401573.409,41.504,41.504,40.039,41.504,17.578
1578401573.413,49.316,55.664,45.898,46.387,-0.977
1578401573.417,45.898,48.340,46.387,36.133,32.227
1578401573.421,43.945,37.598,42.969,30.762,47.852
1578401573.425,45.898,39.062,41.504,34.668,29.785
1578401573.429,43.945,35.645,38.086,32.227,54.199
1578401573.433,46.387,37.109,41.504,31.738,21.973
1578401573.437,49.316,41.504,52.734,38.086,-10.742
1578401573.441,44.922,39.062,55.664,39.062,65.918
1578401573.444,42.480,40.039,58.594,41.992,77.148
1578401573.448,41.992,46.387,58.594,43.457,81.055
1578401573.452,34.668,38.086,40.527,34.668,89.844
1578401573.456,32.715,25.391,35.156,30.762,46.387
1578401573.460,31.738,32.715,49.316,34.668,34.180
1578401573.464,29.785,41.504,53.711,42.480,36.133
1578401573.468,28.320,39.062,42.969,38.574,33.691
1578401573.472,29.785,34.668,37.598,21.973,32.227
1578401573.476,37.598,38.574,48.828,22.461,66.895
1578401573.480,39.062,44.922,57.617,36.133,54.688
1578401573.484,28.320,36.621,58.594,34.668,0.000
1578401573.487,19.531,28.320,59.082,28.809,49.805
1578401573.491,22.949,29.785,51.270,23.438,28.320
1578401573.495,32.715,38.086,49.316,21.484,17.090
1578401573.499,33.691,40.527,49.316,24.902,-3.418
1578401573.503,24.902,40.527,50.293,24.414,22.949
1578401573.507,28.809,51.270,57.129,30.273,76.660
1578401573.511,41.016,55.176,61.523,39.551,35.156
1578401573.515,34.180,47.852,65.430,36.133,22.949
1578401573.519,21.973,46.387,62.988,29.785,38.086
1578401573.523,4.395,38.086,59.082,19.043,52.246
1578401573.527,-3.906,41.016,61.035,16.602,19.531
1578401573.530,5.859,56.152,69.824,21.973,67.871
1578401573.534,-6.348,65.918,66.895,-6.348,81.543
1578401573.538,-26.367,65.430,71.289,-29.785,14.648
1578401573.542,-40.527,59.570,69.336,-35.156,-49.316
1578401573.546,-58.594,56.152,58.594,-53.223,-66.406
1578401573.550,-69.824,61.523,68.848,-70.312,14.160
1578401573.554,-67.871,71.289,75.684,-75.195,24.414
1578401573.558,-63.477,78.613,80.566,-70.312,12.207
1578401573.562,-74.219,74.219,84.961,-73.730,60.059
1578401573.566,-90.332,78.613,88.867,-82.031,11.719
1578401573.569,-87.402,76.660,86.426,-81.055,-14.648
1578401573.573,-67.871,61.035,80.566,-73.730,16.602
1578401573.577,-61.035,55.664,68.848,-68.359,75.684
1578401573.581,-48.340,51.758,62.500,-49.805,60.059
1578401573.585,-35.645,56.152,64.453,-37.109,14.160
1578401573.589,-28.320,51.758,62.500,-31.250,40.039
1578401573.593,-13.184,36.133,52.734,-20.508,70.801
1578401573.597,1.953,33.203,46.387,-13.184,54.199
1578401573.601,10.254,34.668,51.758,6.348,50.293
1578401573.605,13.184,31.738,44.922,25.879,58.594
1578401573.609,16.602,28.320,29.297,22.461,73.730
1578401573.612,25.391,25.391,29.297,25.391,11.230
1578401573.616,46.875,26.367,33.691,46.875,-40.527
1578401573.620,59.082,21.973,33.203,51.270,30.762
1578401573.624,59.570,22.461,35.645,57.129,72.266
1578401573.628,65.918,31.738,33.203,64.453,75.195
1578401573.632,68.359,21.484,22.461,53.711,47.852
1578401573.636,64.941,20.020,24.902,52.734,20.020
1578401573.640,61.523,28.320,22.949,60.547,80.078
1578401573.644,55.664,23.926,16.602,62.012,98.633
1578401573.648,53.223,22.949,27.344,64.941,57.617
1578401573.652,61.523,24.414,34.180,62.012,49.316
1578401573.655,69.336,26.855,31.250,56.641,53.223
1578401573.659,69.824,26.855,30.762,62.012,95.703
1578401573.663,70.801,28.320,35.645,67.383,82.520
1578401573.667,66.895,28.809,38.574,64.453,16.602
1578401573.671,58.105,20.508,34.668,53.711,30.762
1578401573.675,62.988,19.043,32.715,56.641,37.598
1578401573.679,68.359,23.926,27.832,64.453,68.848
1578401573.683,63.477,26.855,26.367,64.453,64.453
1578401573.687,59.570,33.203,28.320,59.082,14.160
1578401573.691,70.312,39.062,34.180,52.734,-10.254
1578401573.694,80.078,34.180,35.156,52.734,-6.836
1578401573.698,75.195,26.855,25.879,46.387,91.309
1578401573.702,62.988,28.320,27.344,47.363,102.051
1578401573.706,60.547,34.180,34.668,59.082,32.715
1578401573.710,63.965,35.645,42.480,60.547,27.344
1578401573.714,61.035,32.227,35.645,52.734,29.785
1578401573.718,59.082,31.738,27.832,51.758,13.672
1578401573.722,53.711,29.785,33.203,49.805,32.715
1578401573.726,51.270,27.832,30.762,46.875,37.109
1578401573.730,53.711,32.715,34.180,46.875,47.363
1578401573.734,54.199,34.668,37.598,42.969,27.344
1578401573.737,51.758,31.738,31.738,41.504,0.000
1578401573.741,52.734,31.250,32.227,47.852,-0.488
1578401573.745,50.293,36.133,30.762,48.828,-25.879
1578401573.749,51.270,38.086,30.762,44.434,5.859
1578401573.753,59.570,36.133,37.598,42.480,42.480
1578401573.757,64.941,37.598,36.133,39.551,28.320
1578401573.761,63.477,33.691,31.738,44.922,18.555
1578401573.765,50.781,31.250,34.668,52.734,19.531
1578401573.769,37.598,37.598,32.715,47.363,-7.812
1578401573.773,38.086,41.992,32.715,40.039,37.598
1578401573.777,46.875,37.598,33.691,42.969,20.996
1578401573.780,49.805,32.227,24.902,47.363,-12.207
1578401573.784,43.945,34.180,29.297,49.805,30.273
1578401573.788,41.016,36.133,39.551,48.340,45.898
1578401573.792,46.875,34.180,32.715,47.363,14.160
1578401573.796,55.176,31.250,27.344,56.152,-6.348
1578401573.800,47.363,37.598,33.203,50.293,63.477
1578401573.804,29.297,40.039,33.691,39.062,66.406
1578401573.808,30.273,37.598,26.855,41.016,13.672
1578401573.812,30.762,38.574,28.320,33.203,21.484
1578401573.816,32.227,40.527,32.227,29.297,-1.953
1578401573.819,43.457,42.969,31.738,33.203,13.184
1578401573.823,38.086,40.039,32.227,30.273,46.875
1578401573.827,23.926,33.691,30.762,28.320,58.594
1578401573.831,27.344,34.180,28.320,26.855,55.664
1578401573.835,39.062,43.457,34.180,33.691,8.789
1578401573.839,42.969,47.363,42.480,46.875,-2.930
1578401573.843,40.527,43.457,47.363,49.805,6.348
1578401573.847,30.273,37.109,36.133,35.156,26.855
1578401573.851,18.066,34.180,30.762,24.902,42.969
1578401573.855,23.438,36.133,37.109,28.809,20.020
1578401573.859,31.250,35.645,40.039,36.133,-14.160
1578401573.862,28.809,37.598,41.016,35.645,-0.488
1578401573.866,25.391,41.992,38.086,33.203,40.527
1578401573.870,34.180,43.457,45.410,41.504,69.824
1578401573.874,40.527,49.316,45.898,38.086,70.801
1578401573.878,34.668,48.340,39.062,26.367,57.129
1578401573.882,41.992,47.852,46.875,36.621,41.016
1578401573.886,35.645,49.805,50.781,37.109,62.500
1578401573.890,29.785,46.875,44.434,29.785,52.734
1578401573.894,33.203,52.246,52.246,27.344,47.363
1578401573.898,21.973,49.805,46.875,12.695,52.246
1578401573.902,9.766,48.340,39.551,8.301,62.500
1578401573.905,-6.836,56.641,46.875,2.441,58.594
1578401573.909,-15.625,70.312,54.688,-10.254,27.832
1578401573.913,-24.902,85.449,49.805,-27.832,31.738
1578401573.917,-42.480,101.074,54.688,-50.781,33.691
1578401573.921,-59.082,104.492,66.406,-63.965,41.504
1578401573.925,-81.543,106.934,65.430,-77.148,100.098
1578401573.929,-101.562,116.211,69.824,-93.750,45.898
1578401573.933,-102.051,115.234,77.637,-102.539,35.645
1578401573.937,-101.562,103.516,76.172,-108.398,86.426
1578401573.941,-100.098,100.586,83.984,-97.656,40.527
1578401573.944,-104.492,108.398,99.609,-92.773,48.340
1578401573.948,-106.445,102.051,98.633,-101.562,45.898
1578401573.952,-103.516,95.215,96.191,-102.051,-58.105
1578401573.956,-92.773,95.215,98.145,-98.633,-98.145
1578401573.960,-77.148,92.773,97.656,-81.543,-14.648
1578401573.964,-80.566,80.078,100.586,-71.777,20.020
1578401573.968,-75.684,74.707,101.562,-62.988,10.742
1578401573.972,-59.570,64.941,87.891,-52.246,25.879
1578401573.976,-52.246,47.852,70.801,-56.641,63.477
1578401573.980,-34.668,37.109,64.453,-41.016,77.148
1578401573.984,-23.926,30.762,62.500,-20.508,82.520
1578401573.987,-29.297,25.879,51.270,-16.602,40.039
1578401573.991,-9.277,17.578,41.992,-4.883,-4.883
1578401573.995,17.090,19.043,41.016,6.836,2.441
1578401573.999,29.785,20.508,37.598,15.137,68.359
1578401574.003,37.598,7.812,30.762,27.832,54.199
1578401574.007,32.715,1.465,24.414,33.691,51.270
1578401574.011,39.062,4.395,24.902,39.062,101.562
1578401574.015,50.781,-2.441,22.461,43.457,36.133
1578401574.019,62.988,0.488,19.043,56.641,4.395
1578401574.023,73.242,-0.488,16.113,67.383,64.453
1578401574.027,70.312,-8.301,18.066,70.801,39.062
1578401574.030,68.848,-2.930,16.602,77.148,29.785
1578401574.034,83.496,4.883,15.625,85.938,42.969
1578401574.038,94.238,6.348,16.602,90.820,-3.906
1578401574.042,90.820,0.977,7.812,89.844,-0.977
1578401574.046,90.332,0.977,8.301,87.402,20.996
1578401574.050,87.891,7.324,9.766,80.566,8.301
1578401574.054,91.797,11.230,7.324,77.148,44.434
1578401574.058,97.656,12.695,12.695,85.449,57.129
1578401574.062,95.703,9.766,20.508,86.914,43.945
1578401574.066,89.355,6.836,19.531,86.914,15.625
1578401574.069,81.543,12.695,18.066,83.496,30.273
1578401574.073,88.867,19.043,17.578,79.102,18.555
1578401574.077,92.285,17.090,20.508,79.102,-36.621
1578401574.081,91.309,16.602,28.320,85.449,2.930
1578401574.085,86.426,18.066,30.273,90.820,82.031
1578401574.089,79.102,17.090,19.531,83.984,70.312
1578401574.093,84.473,22.949,21.484,80.078,35.156
1578401574.097,85.938,27.832,23.438,77.637,83.008
1578401574.101,83.496,22.949,12.695,76.660,93.750
1578401574.105,73.730,17.090,15.137,77.148,87.402
1578401574.109,64.453,17.578,23.926,74.707,76.660
1578401574.112,71.289,29.785,32.227,73.730,54.688
1578401574.116,82.520,32.715,35.156,70.312,24.902
1578401574.120,83.984,21.973,27.344,72.266,34.180
1578401574.124,69.824,25.391,29.297,77.148,16.113
1578401574.128,70.312,26.367,40.039,88.867,-16.113
1578401574.132,82.031,23.926,40.039,93.262,12.207
1578401574.136,59.570,29.785,35.645,55.176,22.949
1578401574.140,49.805,31.738,25.879,38.086,26.367
1578401574.144,57.129,40.527,24.414,54.199,20.508
1578401574.148,48.340,45.898,27.832,48.828,8.789
1578401574.152,44.922,39.551,30.762,37.598,26.367
1578401574.155,39.062,40.039,34.668,25.879,26.855
1578401574.159,43.945,43.457,35.156,32.227,-1.465
1578401574.163,38.086,36.621,36.133,33.691,-6.348
1578401574.167,22.949,32.227,29.785,27.344,-6.836
1578401574.171,22.461,34.180,17.090,23.926,9.277
1578401574.175,42.969,39.062,16.113,29.297,59.570
1578401574.179,53.711,43.945,26.367,38.086,8.301
1578401574.183,41.992,43.945,24.902,43.945,8.301
1578401574.187,36.133,36.621,18.066,52.734,75.195
1578401574.191,36.133,26.367,32.227,47.363,37.598
1578401574.194,49.805,36.133,30.762,45.410,-37.598
1578401574.198,53.223,41.992,26.367,45.898,-3.418
1578401574.202,46.875,30.273,39.062,49.316,23.926
1578401574.206,50.293,36.133,7.324,53.711,7.812
1578401574.210,48.340,41.016,12.207,44.922,24.414
1578401574.214,42.480,20.996,42.480,31.738,36.621
1578401574.218,48.828,20.020,38.574,34.180,72.266
1578401574.222,48.340,31.738,30.762,40.039,96.680
1578401574.226,40.039,36.133,28.320,43.457,97.656
1578401574.230,38.086,37.598,15.625,47.852,63.965
1578401574.234,41.504,36.133,23.926,47.363,13.184
1578401574.237,44.434,40.039,24.902,44.922,-12.207
1578401574.241,48.828,41.992,20.020,47.363,1.465
1578401574.245,47.852,42.969,36.621,49.316,47.363
1578401574.249,39.551,43.457,44.434,43.945,85.938
1578401574.253,41.504,37.109,46.875,33.203,36.621
1578401574.257,43.945,39.062,41.504,32.227,-2.441
1578401574.261,37.598,45.410,35.645,39.551,34.668
1578401574.265,33.203,44.434,38.574,39.062,67.871
1578401574.269,32.227,42.969,46.387,38.086,32.715
1578401574.273,31.738,44.434,63.477,39.551,12.695
1578401574.277,42.480,47.363,79.102,37.598,68.359
1578401574.280,48.828,48.340,76.660,40.527,6.348
1578401574.284,34.668,42.969,75.684,42.969,-32.715
1578401574.288,23.926,37.598,75.195,37.109,42.480
1578401574.292,31.250,41.992,70.312,32.715,38.086
1578401574.296,44.922,44.434,76.172,31.738,-49.805
1578401574.300,46.875,48.828,83.008,32.715,-13.672
1578401574.304,39.062,53.711,84.961,38.086,76.172
1578401574.308,33.203,50.781,86.426,41.016,81.543
1578401574.312,35.645,49.316,85.938,38.574,30.273
1578401574.316,42.480,47.363,80.566,34.180,-8.789
1578401574.319,53.223,51.270,77.637,38.086,-13.184
1578401574.323,49.805,57.129,77.148,42.969,13.672
1578401574.327,38.086,52.734,76.172,37.109,40.527
1578401574.331,38.086,46.875,71.289,32.227,14.648
1578401574.335,39.551,43.945,62.012,34.668,0.488
1578401574.339,44.434,52.734,60.547,41.016,22.949
1578401574.343,42.969,59.082,68.359,45.898,20.508
1578401574.347,24.902,50.781,61.035,35.156,35.645
1578401574.351,19.531,41.016,53.711,25.879,27.344
1578401574.355,30.762,44.922,53.223,27.344,25.879
1578401574.359,35.645,51.758,48.828,27.344,108.887
1578401574.362,31.250,50.293,57.129,31.738,47.852
1578401574.366,25.879,49.805,66.406,34.668,-18.066
1578401574.370,27.344,58.105,65.430,33.203,25.879
1578401574.374,37.598,62.988,64.941,28.809,23.438
1578401574.378,38.574,56.641,59.082,22.461,31.250
1578401574.382,32.715,49.805,52.246,22.949,20.508
1578401574.386,36.621,52.246,51.270,30.273,28.320
1578401574.390,32.715,58.105,51.270,32.227,24.414
1578401574.394,25.391,57.129,52.734,28.809,8.789
1578401574.398,33.691,48.828,51.270,29.785,30.762
1578401574.402,38.574,51.270,59.570,33.203,10.742
1578401574.405,35.156,61.035,58.594,29.297,19.043
1578401574.409,37.109,60.547,51.758,29.785,52.246
1578401574.413,37.109,52.246,44.434,21.973,16.602
1578401574.417,36.621,51.758,34.668,16.113,31.738
1578401574.421,33.691,50.293,41.992,32.715,54.199
1578401574.425,36.621,42.969,45.898,49.316,47.852
1578401574.429,47.363,44.922,42.969,47.363,11.719
1578401574.433,37.109,49.805,45.898,22.461,19.043
1578401574.437,42.480,50.293,46.875,15.625,27.344
1578401574.441,53.711,60.059,51.758,23.926,-6.348
1578401574.444,41.992,59.570,58.594,21.484,-7.812
1578401574.448,28.320,45.898,47.852,15.625,-10.742
1578401574.452,19.531,47.852,37.598,4.883,-5.371
1578401574.456,25.391,53.711,42.969,12.695,4.395
1578401574.460,20.996,49.805,47.852,20.020,46.875
1578401574.464,13.672,45.898,43.945,23.926,78.125
1578401574.468,15.137,51.270,48.340,30.273,71.289
1578401574.472,19.043,48.828,45.898,27.832,116.211
1578401574.476,25.391,37.598,38.574,23.926,99.121
1578401574.480,27.344,40.039,39.551,25.879,47.363
1578401574.484,28.320,52.246,39.062,30.762,73.730
1578401574.487,27.832,49.805,43.457,31.250,44.922
1578401574.491,29.785,40.527,47.852,27.344,53.711
1578401574.495,31.738,42.969,37.598,24.414,58.105
1578401574.499,33.203,44.922,30.273,32.227,2.930
1578401574.503,36.621,40.527,33.691,42.969,-6.348
1578401574.507,27.832,36.621,32.715,38.086,16.113
1578401574.511,19.043,36.133,32.227,29.785,21.484
1578401574.515,26.367,45.898,30.273,39.062,-0.488
1578401574.519,35.645,48.828,30.762,45.410,35.156
1578401574.523,34.180,40.527,34.180,41.992,45.410
1578401574.527,34.180,46.387,34.180,45.410,61.035
1578401574.530,30.762,41.016,35.156,43.457,50.781
1578401574.534,22.949,30.273,28.809,30.762,13.672
1578401574.538,23.438,38.086,34.180,27.832,49.316
1578401574.542,24.414,40.527,38.574,35.156,40.039
1578401574.546,20.020,37.598,32.227,34.180,-15.137
1578401574.550,16.113,36.133,25.879,20.996,-27.344
1578401574.554,25.391,39.551,22.461,15.137,-1.953
1578401574.558,43.457,48.828,32.227,25.391,26.855
1578401574.562,40.039,46.875,39.062,30.762,40.039
1578401574.566,26.855,33.203,38.086,21.484,51.270
1578401574.569,23.926,29.785,38.086,16.113,66.895
1578401574.573,25.879,36.621,40.527,16.602,15.137
1578401574.577,37.109,42.969,42.969,25.879,12.695
1578401574.581,36.621,41.992,41.992,35.156,41.504
1578401574.585,25.391,39.062,34.180,33.203,49.805
1578401574.589,28.320,44.922,38.086,33.691,35.156
1578401574.593,32.715,49.316,45.410,34.180,2.930
1578401574.597,30.762,39.551,39.062,30.273,19.531
1578401574.601,32.715,34.668,35.156,33.203,30.762
1578401574.605,28.320,37.109,27.832,37.598,31.738
1578401574.609,22.949,36.621,21.484,35.156,35.156
1578401574.612,24.902,37.598,25.391,30.273,51.270
1578401574.616,39.062,43.945,31.738,30.762,26.367
1578401574.620,48.340,46.875,35.645,40.039,3.906
1578401574.624,31.738,34.668,37.598,33.691,35.645
1578401574.628,22.461,30.273,39.062,18.555,102.539
1578401574.632,26.855,39.062,54.199,19.531,95.215
1578401574.636,34.668,43.457,70.312,22.949,43.945
1578401574.640,37.109,42.969,62.988,16.602,33.203
1578401574.644,34.180,39.551,53.223,19.043,12.695
1578401574.648,32.715,39.062,59.082,27.832,-2.441
1578401574.652,35.156,45.410,65.918,24.902,26.367
1578401574.655,34.180,43.457,50.293,14.160,58.594
1578401574.659,32.715,40.039,41.992,19.531,45.410
1578401574.663,26.855,38.574,50.293,25.879,42.969
1578401574.667,9.277,28.809,50.293,22.461,57.129
1578401574.671,10.742,28.320,46.875,18.555,59.570
1578401574.675,22.461,40.527,46.875,16.113,22.949
1578401574.679,32.715,45.410,51.758,23.926,59.082
1578401574.683,31.738,41.992,50.293,25.879,66.895
1578401574.687,17.090,43.945,47.363,18.555,12.207
1578401574.691,17.090,44.434,50.781,16.113,-1.465
1578401574.694,20.996,40.527,41.016,12.695,3.418
1578401574.698,25.879,39.551,33.691,21.973,15.625
1578401574.702,34.180,46.387,48.340,39.062,41.992
1578401574.706,34.668,54.688,55.176,47.363,79.102
1578401574.710,32.227,53.223,46.875,39.062,14.648
1578401574.714,39.551,53.223,46.387,33.203,-32.227
1578401574.718,42.480,53.223,51.270,35.156,-35.645
1578401574.722,34.180,44.922,52.246,32.227,-21.973
1578401574.726,26.855,48.828,55.176,33.691,54.199
1578401574.730,20.996,60.059,50.293,30.273,52.734
1578401574.734,23.438,59.570,38.574,17.578,-11.230
1578401574.737,34.668,59.082,47.852,24.414,21.973
1578401574.741,45.898,59.570,59.082,48.828,18.555
1578401574.745,49.316,55.176,57.129,60.547,-11.230
1578401574.749,36.133,56.152,57.617,43.945,26.367
1578401574.753,24.902,58.594,51.758,22.461,18.555
1578401574.757,41.504,57.617,53.711,29.785,-12.695
1578401574.761,43.945,56.641,53.711,32.715,50.293
1578401574.765,34.180,58.594,47.363,32.227,61.035
1578401574.769,38.574,62.988,46.875,42.969,56.641
1578401574.773,32.227,60.547,41.016,34.668,122.559
1578401574.777,26.855,52.246,38.574,25.391,50.293
1578401574.780,32.227,52.734,40.039,27.832,18.066
1578401574.784,31.738,58.105,44.922,31.250,47.363
1578401574.788,32.715,56.152,53.223,30.273,35.156
1578401574.792,28.320,51.270,53.223,22.461,36.621
1578401574.796,32.715,48.828,46.875,20.996,23.438
1578401574.800,30.273,50.293,48.828,27.344,34.668
1578401574.804,21.484,50.781,43.457,31.738,3.418
1578401574.808,20.996,51.758,33.203,31.738,27.344
1578401574.812,24.902,45.898,36.133,30.762,43.457
1578401574.816,35.645,47.852,45.410,33.691,30.273
1578401574.819,38.086,62.012,45.410,34.668,65.430
1578401574.823,33.691,61.035,44.922,34.180,33.203
1578401574.827,21.484,51.270,43.457,27.832,31.738
1578401574.831,22.949,56.641,45.410,22.461,34.668
1578401574.835,31.738,56.641,49.316,23.438,15.625
1578401574.839,27.832,56.152,44.434,21.484,33.203
1578401574.843,24.414,64.941,35.645,21.484,70.312
1578401574.847,22.949,62.500,36.621,24.902,70.312
1578401574.851,22.949,62.500,51.758,26.367,-8.301
1578401574.855,32.227,69.824,52.734,25.879,23.438
1578401574.859,35.156,69.824,41.016,24.902,54.688
1578401574.862,27.344,65.918,31.738,21.484,15.137
1578401574.866,31.250,70.312,39.062,22.461,51.758
1578401574.870,28.320,73.730,44.434,27.832,90.332
1578401574.874,29.785,76.172,41.992,37.109,34.668
1578401574.878,36.621,71.289,46.875,39.062,3.906
1578401574.882,34.668,68.359,48.340,36.621,67.871
1578401574.886,21.973,71.777,42.480,30.762,84.961
1578401574.890,17.090,68.848,38.086,30.273,32.227
1578401574.894,27.344,67.383,39.062,28.320,32.715
1578401574.898,36.621,74.219,42.969,25.879,42.480
1578401574.902,39.551,78.613,44.922,32.227,54.688
1578401574.905,34.180,69.824,47.363,33.203,31.738
1578401574.909,30.273,59.570,46.387,28.809,44.434
1578401574.913,32.715,57.129,39.551,22.949,34.180
1578401574.917,36.621,67.383,45.410,29.297,38.574
1578401574.921,35.156,61.523,49.805,33.203,85.449
1578401574.925,23.926,47.852,36.133,24.902,38.086
1578401574.929,15.625,44.434,29.785,16.602,12.207
1578401574.933,25.391,43.457,37.598,17.090,35.645
1578401574.937,35.156,46.875,40.527,20.996,20.020
1578401574.941,37.109,50.293,40.039,26.367,38.574
1578401574.944,29.785,47.852,45.898,27.344,70.801
1578401574.948,26.855,51.270,48.340,33.203,42.969
1578401574.952,28.320,49.316,40.527,33.203,10.254
1578401574.956,29.297,39.551,33.691,25.391,17.578
1578401574.960,41.504,38.086,34.668,37.109,38.086
1578401574.964,29.297,41.504,38.086,26.855,30.762
1578401574.968,10.742,42.480,39.551,9.766,4.395
1578401574.972,15.625,39.062,43.945,14.160,-27.832
1578401574.976,18.066,38.086,44.434,12.695,-0.488
1578401574.980,26.855,41.016,40.527,28.809,-1.953
1578401574.984,33.203,36.621,38.574,40.039,28.809
1578401574.987,37.109,36.133,36.621,41.016,71.777
1578401574.991,33.691,31.250,32.715,38.574,58.105
1578401574.995,32.227,24.414,30.273,29.785,29.297
1578401574.999,42.969,27.344,25.391,30.762,47.363
1578401575.003,37.598,26.367,23.926,34.180,89.355
1578401575.007,33.203,31.738,41.992,39.062,22.461
1578401575.011,40.039,32.227,48.828,39.062,-22.949
1578401575.015,39.551,25.391,39.551,30.273,-20.020
1578401575.019,42.480,28.320,41.016,28.320,-2.930
1578401575.023,35.645,27.832,40.039,32.715,4.395
1578401575.027,24.414,24.414,39.062,37.109,-11.719
1578401575.030,22.949,26.367,42.969,31.738,5.371
1578401575.034,28.809,28.809,44.434,28.809,8.789
1578401575.038,41.504,27.344,54.688,37.109,-0.977
1578401575.042,41.992,28.320,57.129,43.945,45.898
1578401575.046,31.738,28.809,45.898,37.109,59.570
1578401575.050,29.297,29.297,43.945,31.250,30.762
1578401575.054,35.645,32.715,45.410,33.691,71.777
1578401575.058,46.387,31.738,42.969,37.109,79.102
1578401575.062,48.340,28.320,41.504,41.504,35.645
1578401575.066,36.621,31.250,37.598,40.039,39.551
1578401575.069,29.785,31.738,35.156,30.273,10.254
1578401575.073,35.645,26.855,35.645,28.809,45.410
1578401575.077,40.527,34.668,43.945,30.273,66.895
1578401575.081,40.039,34.668,46.387,33.203,-10.742
1578401575.085,35.156,26.367,40.527,37.109,-14.160
1578401575.089,29.785,28.809,47.852,37.109,20.996
1578401575.093,31.738,28.320,54.199,36.621,58.594
1578401575.097,37.109,28.320,49.805,33.691,38.086
1578401575.101,43.945,35.645,47.363,37.109,13.672
1578401575.105,41.504,29.297,42.480,38.086,5.371
1578401575.109,33.691,21.484,37.598,33.203,78.613
1578401575.112,39.551,26.367,39.062,28.809,96.191
1578401575.116,52.734,28.809,39.551,32.715,-15.625
1578401575.120,53.711,27.832,45.410,42.480,2.441
1578401575.124,37.109,27.832,54.199,40.527,87.402
1578401575.128,26.367,37.109,58.105,34.668,33.691
1578401575.132,27.344,35.645,52.734,29.785,13.184
1578401575.136,30.273,30.273,39.062,24.902,57.617
1578401575.140,24.902,36.133,34.180,22.461,11.719
1578401575.144,20.996,36.621,34.668,27.344,17.090
1578401575.148,22.949,34.180,36.621,28.320,71.777
1578401575.152,18.066,30.762,32.227,14.160,47.852
1578401575.155,29.297,33.691,33.203,18.066,-3.906
1578401575.159,42.480,39.062,42.480,32.227,-23.926
1578401575.163,25.879,37.109,34.668,31.738,45.410
1578401575.167,20.508,36.133,30.273,34.668,65.918
1578401575.171,25.391,43.457,34.180,33.203,91.309
1578401575.175,23.926,39.062,36.133,26.855,112.793
1578401575.179,28.320,26.367,42.480,28.809,36.621
1578401575.183,24.414,31.250,39.062,26.855,-0.977
1578401575.187,22.461,33.203,39.551,30.762,21.484
1578401575.191,22.949,32.715,34.180,34.180,-7.812
1578401575.194,25.391,42.969,37.109,26.855,6.348
1578401575.198,27.832,49.316,49.805,25.879,43.945
1578401575.202,22.949,49.316,41.016,34.668,56.641
1578401575.206,22.949,44.434,32.227,37.109,38.574
1578401575.210,18.555,42.480,34.668,29.785,33.691
1578401575.214,24.902,49.316,40.527,27.832,19.531
1578401575.218,37.598,51.270,45.410,35.645,28.809
1578401575.222,35.156,46.387,42.969,36.621,59.570
1578401575.226,27.344,40.527,43.457,36.621,26.855
1578401575.230,27.832,40.527,51.270,41.016,70.312
1578401575.234,32.715,45.410,50.781,36.621,59.082
1578401575.237,33.691,44.922,39.551,32.715,19.531
1578401575.241,39.062,49.316,38.086,35.156,20.508
1578401575.245,43.457,52.246,46.387,41.504,-19.043
1578401575.249,32.715,51.270,41.016,40.527,17.578
1578401575.253,36.621,49.805,38.574,34.180,6.348
1578401575.257,46.875,49.316,42.969,36.621,11.230
1578401575.261,47.363,48.828,49.805,48.828,44.922
1578401575.265,36.621,43.457,44.922,52.246,-38.574
1578401575.269,20.508,39.551,37.109,41.016,-29.297
1578401575.273,26.367,40.039,41.504,38.574,58.594
1578401575.277,41.016,45.898,43.457,41.504,74.219
1578401575.280,39.062,45.898,34.668,37.109,91.797
1578401575.284,31.738,41.992,34.668,34.180,86.426
1578401575.288,30.762,42.480,39.062,37.598,62.500
1578401575.292,36.133,45.898,40.527,38.574,46.875
1578401575.296,43.457,40.527,36.133,29.785,6.348
1578401575.300,44.434,40.527,43.457,34.180,50.293
1578401575.304,38.574,46.387,47.852,42.969,41.992
1578401575.308,27.832,38.574,36.621,34.668,49.805
1578401575.312,37.598,39.062,41.504,35.156,37.109
1578401575.316,46.387,45.898,41.992,34.180,75.195
1578401575.319,37.598,41.016,41.504,31.738,114.746
1578401575.323,30.273,39.551,41.992,36.133,37.598
1578401575.327,20.996,35.645,34.668,28.809,40.039
1578401575.331,25.879,28.809,31.738,24.414,70.312
1578401575.335,37.598,29.297,35.156,27.832,58.105
1578401575.339,35.645,33.691,39.062,34.668,61.035
1578401575.343,17.090,31.250,41.992,30.273,63.477
1578401575.347,12.207,29.785,42.480,30.762,69.336
1578401575.351,16.602,30.762,41.992,30.762,42.969
1578401575.355,14.648,26.855,36.133,17.578,23.926
1578401575.359,27.832,27.832,31.250,19.531,71.289
1578401575.362,36.621,36.133,35.156,31.738,91.797
1578401575.366,29.297,32.227,41.504,29.297,71.777
1578401575.370,24.414,24.414,38.574,25.391,8.789
1578401575.374,30.273,29.297,35.156,25.391,-3.418
1578401575.378,36.621,33.691,40.039,27.344,-14.160
1578401575.382,40.039,35.156,49.805,41.504,1.953
1578401575.386,37.109,28.809,49.316,41.504,53.711
1578401575.390,33.691,18.555,40.039,29.785,58.594
1578401575.394,40.039,22.461,49.316,27.344,15.137
1578401575.398,45.898,31.738,51.758,26.855,14.648
1578401575.402,46.387,36.133,42.480,29.785,31.738
1578401575.405,38.574,37.109,42.969,35.156,26.855
1578401575.409,30.762,36.133,49.316,36.133,15.137
1578401575.413,27.344,34.668,48.828,29.297,68.848
1578401575.417,32.227,34.180,42.969,22.949,-12.695
1578401575.421,35.645,28.809,41.504,24.902,-35.156
1578401575.425,25.879,24.902,43.457,26.855,32.227
1578401575.429,13.672,25.879,47.852,27.832,31.738
1578401575.433,19.043,28.809,47.363,31.250,-3.906
1578401575.437,29.297,30.762,47.852,26.367,13.184
1578401575.441,35.645,29.297,48.340,25.391,20.020
1578401575.444,34.180,29.785,43.945,29.785,29.297
1578401575.448,21.973,32.715,39.551,22.461,45.898
1578401575.452,23.926,26.855,44.434,20.020,-3.906
1578401575.456,29.785,20.996,44.434,22.461,7.812
1578401575.460,31.738,24.414,41.016,30.273,-3.418
1578401575.464,31.738,26.855,40.527,36.133,13.672
1578401575.468,31.738,28.320,48.828,38.574,65.918
1578401575.472,29.785,32.715,55.176,33.203,28.809
1578401575.476,25.391,31.250,45.898,19.531,-11.719
1578401575.480,34.668,22.949,43.945,31.250,44.922
1578401575.484,35.645,24.902,44.922,42.480,59.082
1578401575.487,20.996,32.227,42.969,40.527,41.016
1578401575.491,14.160,27.344,33.203,36.133,39.062
1578401575.495,18.555,24.414,29.297,27.832,0.488
1578401575.499,31.250,28.320,39.062,32.715,-32.227
1578401575.503,30.273,30.273,41.992,37.109,6.836
1578401575.507,27.832,29.297,39.062,36.621,31.738
1578401575.511,32.227,25.391,31.738,35.645,24.902
1578401575.515,28.809,24.902,29.785,25.391,27.344
1578401575.519,35.156,31.250,41.016,29.785,9.277
1578401575.523,35.645,33.203,45.898,36.133,18.555
1578401575.527,20.996,25.879,44.434,27.832,53.223
1578401575.530,20.020,25.879,40.527,20.020,56.641
1578401575.534,23.926,35.645,39.062,14.160,59.082
1578401575.538,31.250,39.062,41.016,19.043,29.785
1578401575.542,28.320,34.668,41.016,22.461,-8.789
1578401575.546,16.113,33.691,38.574,19.043,59.570
1578401575.550,20.996,32.227,37.598,16.602,103.027
1578401575.554,32.227,32.715,33.203,11.719,41.992
1578401575.558,46.875,38.086,25.879,26.367,14.648
1578401575.562,62.012,39.551,30.762,52.734,78.125
1578401575.566,52.246,42.969,33.203,45.898,30.273
1578401575.569,29.297,44.434,35.645,22.461,7.812
1578401575.573,32.227,39.062,37.109,16.602,63.965
1578401575.577,48.340,40.039,38.086,27.344,0.000
1578401575.581,33.691,39.062,36.133,20.996,1.953
1578401575.585,22.949,28.320,33.691,19.043,29.785
1578401575.589,21.484,31.738,32.227,21.973,36.133
1578401575.593,15.137,37.109,29.297,18.555,79.102
1578401575.597,29.297,40.527,37.109,24.902,83.496
1578401575.601,41.504,35.645,42.480,31.250,84.473
1578401575.605,30.762,26.367,36.621,28.320,32.227
1578401575.609,25.879,34.180,33.691,27.832,12.207
1578401575.612,32.227,40.039,37.598,30.273,33.203
1578401575.616,30.273,34.180,36.133,24.902,24.414
1578401575.620,28.809,26.367,34.180,28.809,-22.949
1578401575.624,34.180,30.762,46.387,35.156,-28.809
1578401575.628,33.691,32.227,48.340,35.645,-9.277
1578401575.632,28.320,29.297,38.574,30.762,16.113
1578401575.636,36.621,35.156,41.504,27.344,60.059
1578401575.640,42.480,36.621,45.898,30.273,38.086
1578401575.644,41.504,35.156,37.598,31.250,-4.395
1578401575.648,41.504,42.480,32.715,33.691,14.648
1578401575.652,37.109,38.086,31.250,24.902,54.199
1578401575.655,41.992,30.273,28.809,20.996,41.504
1578401575.659,52.734,35.156,35.156,26.367,41.504
1578401575.663,43.945,32.715,36.621,26.855,99.121
1578401575.667,29.785,29.785,32.715,29.785,82.520
1578401575.671,25.879,32.715,37.598,31.250,53.223
1578401575.675,22.949,36.621,37.598,29.785,78.125
1578401575.679,25.879,32.715,29.785,28.320,64.453
1578401575.683,32.715,40.039,29.297,37.109,47.363
1578401575.687,27.344,41.016,31.738,38.574,66.406
1578401575.691,20.996,31.250,31.250,33.203,64.453
1578401575.694,27.344,30.762,31.738,32.227,22.949
1578401575.698,36.621,35.645,29.785,35.156,-29.785
1578401575.702,41.992,38.574,31.250,43.457,18.066
1578401575.706,36.621,36.133,37.598,38.574,96.680
1578401575.710,27.832,32.715,31.250,31.250,109.863
1578401575.714,32.715,31.250,33.203,32.227,86.426
1578401575.718,50.781,43.945,45.898,39.551,55.176
1578401575.722,50.781,51.758,40.527,38.086,77.148
1578401575.726,36.621,45.898,33.203,29.297,82.031
1578401575.730,28.809,42.969,33.203,26.367,53.711
1578401575.734,38.086,38.086,35.156,32.227,29.785
1578401575.737,51.270,40.039,36.621,38.574,-35.156
1578401575.741,52.734,53.223,34.668,32.227,-38.086
1578401575.745,37.109,53.711,37.109,19.531,6.836
1578401575.749,22.949,36.133,34.668,17.578,-26.855
1578401575.753,26.367,35.156,31.738,18.555,-62.988
1578401575.757,34.668,47.852,39.551,20.020,-16.113
1578401575.761,37.109,45.410,41.992,31.250,-14.160
1578401575.765,31.738,40.039,38.574,34.180,9.277
1578401575.769,32.227,42.480,42.480,33.203,74.707
1578401575.773,35.645,47.363,48.828,34.180,63.965
1578401575.777,38.086,44.434,47.852,40.039,26.855
1578401575.780,40.527,42.969,45.898,43.457,40.527
1578401575.784,33.203,37.598,39.551,38.086,45.410
1578401575.788,29.297,34.668,34.180,40.039,47.363
1578401575.792,34.668,41.992,38.574,39.551,44.434
1578401575.796,42.480,44.922,42.480,30.762,33.203
1578401575.800,51.270,47.363,40.527,32.227,50.293
1578401575.804,46.387,45.898,39.551,41.504,20.020
1578401575.808,36.133,39.062,43.457,42.480,25.879
1578401575.812,40.527,42.480,42.480,39.062,51.758
1578401575.816,48.340,43.457,37.598,34.180,33.203
1578401575.819,52.246,40.527,38.574,34.180,29.785
1578401575.823,45.898,39.551,35.645,37.598,51.270
1578401575.827,36.621,40.039,37.598,41.992,55.176
1578401575.831,36.133,39.551,42.969,39.551,31.738
1578401575.835,35.645,39.551,40.039,33.691,34.180
1578401575.839,42.480,42.480,43.457,41.016,79.102
1578401575.843,49.805,42.969,46.875,45.898,67.871
1578401575.847,41.504,39.551,37.598,40.527,11.230
1578401575.851,38.086,37.109,32.227,40.039,39.062
1578401575.855,48.828,36.621,40.039,37.109,39.062
1578401575.859,56.152,40.527,37.598,32.227,20.020
1578401575.862,55.664,40.527,31.250,39.062,-13.672
1578401575.866,54.688,40.039,42.969,45.410,-18.066
1578401575.870,42.480,46.387,51.758,37.598,-29.297
1578401575.874,45.410,49.316,55.664,35.645,-29.297
1578401575.878,47.852,42.480,55.176,37.598,2.441
1578401575.882,35.156,28.809,39.062,34.668,-20.996
1578401575.886,34.180,25.879,33.691,41.016,-56.641
1578401575.890,34.180,31.250,36.621,40.527,-33.203
1578401575.894,36.621,39.062,37.598,37.109,28.320
1578401575.898,47.363,44.922,44.922,40.039,20.020
1578401575.902,44.434,38.574,48.828,37.598,-4.395
1578401575.905,32.715,37.598,46.875,40.527,41.016
1578401575.909,33.203,42.480,58.105,45.898,31.250
1578401575.913,36.621,41.504,50.781,38.574,20.020
1578401575.917,32.227,38.574,32.227,27.832,43.457
1578401575.921,32.227,37.109,27.344,27.832,32.715
1578401575.925,35.156,41.504,33.203,37.109,23.438
1578401575.929,32.715,40.527,40.527,37.598,27.344
1578401575.933,36.133,36.621,42.480,33.203,12.207
1578401575.937,44.922,39.062,38.086,31.738,0.488
1578401575.941,41.992,38.086,37.109,33.691,29.297
1578401575.944,35.645,33.691,42.969,33.691,31.738
1578401575.948,35.156,37.598,42.969,30.762,18.555
1578401575.952,32.715,42.969,33.691,25.391,18.555
1578401575.956,35.645,43.457,27.832,18.555,54.199
1578401575.960,45.898,47.852,33.203,28.809,55.664
1578401575.964,44.434,49.805,38.574,38.086,35.645
1578401575.968,28.809,41.504,29.785,30.273,18.066
1578401575.972,23.926,37.598,29.297,30.273,20.020
1578401575.976,29.297,46.875,37.598,30.273,55.664
1578401575.980,30.273,45.898,32.715,27.344,21.484
1578401575.984,31.250,40.039,22.949,29.297,15.625
1578401575.987,30.273,43.945,22.949,31.250,29.297
1578401575.991,27.832,41.504,29.297,28.320,75.684
1578401575.995,35.156,44.922,38.574,27.344,94.727
1578401575.999,41.992,54.688,40.039,37.109,14.648
1578401576.003,35.645,51.270,34.180,39.062,11.719
1578401576.007,25.879,43.457,36.133,27.832,28.320
1578401576.011,24.414,47.363,32.227,24.902,32.715
1578401576.015,33.691,49.316,34.180,34.180,84.473
1578401576.019,35.156,40.527,44.434,36.621,21.973
1578401576.023,27.832,43.945,36.133,29.297,-8.301
1578401576.027,12.695,43.945,27.344,21.484,27.832
1578401576.030,10.254,40.527,33.691,24.414,62.012
1578401576.034,20.508,41.504,34.180,26.367,51.758
1578401576.038,17.090,43.457,36.133,19.043,60.059
1578401576.042,22.949,46.875,35.645,20.996,56.152
1578401576.046,26.367,48.340,28.320,29.297,42.480
1578401576.050,20.508,46.875,31.250,27.344,84.961
1578401576.054,19.043,45.898,31.738,18.555,35.156
1578401576.058,25.879,44.434,29.297,17.578,-23.926
1578401576.062,31.250,42.969,37.109,25.391,37.598
1578401576.066,32.227,44.434,39.551,37.598,69.824
1578401576.069,28.320,42.480,34.668,32.715,43.945
1578401576.073,27.344,36.621,35.645,23.438,50.781
1578401576.077,36.621,42.480,38.086,25.879,60.059
1578401576.081,35.156,48.828,41.992,24.414,50.293
1578401576.085,27.832,43.457,37.109,22.949,31.250
1578401576.089,17.090,43.945,35.645,27.344,12.695
1578401576.093,14.648,39.062,40.527,20.508,6.348
1578401576.097,22.949,35.645,39.062,15.137,53.711
1578401576.101,26.367,32.715,42.480,20.996,47.363
1578401576.105,23.438,32.715,38.086,24.902,65.918
1578401576.109,20.996,41.504,28.809,28.809,108.398
1578401576.112,21.973,48.340,37.598,34.180,93.262
1578401576.116,30.762,54.688,37.598,35.645,61.035
1578401576.120,37.598,49.805,33.691,35.645,0.000
1578401576.124,34.180,49.805,43.457,40.039,27.832
1578401576.128,25.391,51.270,44.922,34.668,69.824
1578401576.132,22.461,39.062,41.504,22.949,41.504
1578401576.136,32.715,40.039,41.992,21.973,-15.137
1578401576.140,40.039,42.480,33.691,22.461,-31.250
1578401576.144,41.992,42.480,24.414,28.809,44.922
1578401576.148,34.180,40.039,27.832,33.203,78.613
1578401576.152,35.156,43.457,39.551,33.691,88.379
1578401576.155,39.551,51.270,43.945,30.762,79.102
1578401576.159,36.133,43.457,37.598,25.391,44.922
1578401576.163,33.691,33.691,32.715,26.855,28.320
1578401576.167,27.832,31.250,33.691,27.344,34.180
1578401576.171,26.367,33.203,37.109,28.809,51.270
1578401576.175,35.645,33.203,44.434,30.273,37.109
1578401576.179,34.668,36.133,37.598,30.762,39.551
1578401576.183,31.250,40.039,28.809,31.738,52.734
1578401576.187,30.273,39.062,36.621,30.273,36.621
1578401576.191,18.555,38.574,39.062,20.996,25.879
1578401576.194,21.484,37.109,40.527,15.625,16.602
1578401576.198,31.250,41.016,41.992,18.555,3.906
1578401576.202,24.902,38.574,27.832,19.531,45.410
1578401576.206,26.367,29.297,28.809,20.508,36.621
1578401576.210,24.414,31.738,37.109,23.438,-11.230
1578401576.214,20.020,38.086,35.156,22.461,-30.762
1578401576.218,30.273,37.109,42.480,22.949,-25.879
1578401576.222,39.062,30.273,45.410,38.574,13.672
1578401576.226,39.062,36.133,38.574,48.340,3.418
1578401576.230,28.320,44.922,30.762,30.273,6.836
1578401576.234,17.578,43.945,27.832,12.207,2.930
1578401576.237,24.902,45.898,35.156,12.207,-25.391
1578401576.241,30.762,41.992,42.969,23.926,18.555
1578401576.245,29.297,41.016,37.598,27.344,4.883
1578401576.249,28.320,42.480,35.156,24.902,-8.789
1578401576.253,27.832,42.480,39.062,24.414,34.180
1578401576.257,36.133,45.898,38.574,25.391,42.969
1578401576.261,42.969,43.457,41.992,35.645,16.113
1578401576.265,31.738,35.156,39.551,38.574,24.902
1578401576.269,23.926,32.227,35.645,41.016,31.250
1578401576.273,26.367,34.180,41.016,41.992,4.395
1578401576.277,30.762,34.668,39.062,32.715,23.926
1578401576.280,41.992,39.062,46.875,37.598,-23.926
1578401576.284,42.480,41.992,48.340,42.969,-24.414
1578401576.288,34.668,39.062,37.598,35.156,63.477
1578401576.292,31.738,40.039,35.156,26.855,80.566
1578401576.296,32.227,41.504,35.645,20.996,79.102
1578401576.300,41.016,41.504,42.480,29.297,61.035
1578401576.304,42.969,41.016,45.898,35.156,45.898
1578401576.308,28.809,35.156,35.645,32.227,56.152
1578401576.312,23.438,32.715,33.203,29.785,38.574
1578401576.316,26.367,38.086,43.457,26.367,60.547
1578401576.319,33.203,37.598,52.246,30.273,45.410
1578401576.323,37.109,37.109,42.480,32.715,36.133
1578401576.327,31.738,38.574,32.715,29.297,71.289
1578401576.331,26.367,32.715,37.109,26.367,113.770
1578401576.335,34.180,31.250,34.180,29.785,71.289
1578401576.339,41.504,38.086,32.227,35.645,-10.254
1578401576.343,33.691,39.062,44.922,41.504,-4.395
1578401576.347,25.879,31.250,54.199,37.598,56.152
1578401576.351,29.785,35.156,43.457,33.203,89.844
1578401576.355,34.668,40.527,36.621,23.926,32.227
1578401576.359,35.645,36.133,41.016,17.578,26.855
1578401576.362,36.133,38.086,36.133,26.855,21.973
1578401576.366,38.086,37.109,25.879,34.180,28.320
1578401576.370,41.016,28.320,35.645,38.086,109.375
1578401576.374,31.250,33.203,52.246,27.832,113.281
1578401576.378,28.809,44.922,48.828,22.461,43.457
1578401576.382,33.691,43.945,38.574,29.785,34.668
1578401576.386,23.926,40.039,43.945,31.250,55.176
1578401576.390,13.672,35.645,43.945,26.855,68.359
1578401576.394,15.625,33.203,40.527,23.926,46.875
1578401576.398,24.414,33.691,41.016,22.461,16.113
1578401576.402,32.715,37.109,35.645,21.973,2.930
1578401576.405,34.668,41.016,36.133,28.320,37.598
1578401576.409,30.762,41.504,40.039,30.762,90.332
1578401576.413,36.621,41.992,38.574,29.297,90.332
1578401576.417,39.551,41.016,32.715,27.344,85.449
1578401576.421,35.156,43.457,23.926,30.762,43.457
1578401576.425,32.227,41.016,30.762,39.551,55.664
1578401576.429,24.902,38.086,41.992,38.574,71.289
1578401576.433,20.508,39.551,41.504,33.203,7.324
1578401576.437,28.809,38.574,41.504,33.691,-19.531
1578401576.441,37.598,39.062,41.016,39.062,-34.180
1578401576.444,35.645,42.480,42.969,41.016,-8.789
1578401576.448,33.691,43.945,49.316,40.039,10.742
1578401576.452,32.227,39.551,42.480,35.156,11.230
1578401576.456,30.273,40.039,30.762,29.297,43.945
1578401576.460,41.016,51.270,38.086,37.109,13.672
1578401576.464,44.434,49.805,42.480,44.434,6.836
1578401576.468,38.574,46.387,42.969,44.434,72.754
1578401576.472,36.621,47.363,42.969,45.410,19.531
1578401576.476,42.969,47.363,42.969,49.805,-33.691
1578401576.480,41.504,43.457,44.434,40.039,32.227
1578401576.484,38.574,33.691,42.480,33.691,48.828
1578401576.487,35.645,32.715,31.738,32.715,-0.488
1578401576.491,29.297,39.551,27.832,26.367,-34.668
1578401576.495,33.203,49.316,28.320,26.855,-5.859
1578401576.499,42.969,55.664,32.715,35.156,44.434
1578401576.503,45.410,53.711,40.527,38.574,64.453
1578401576.507,38.086,47.852,37.598,39.551,71.289
1578401576.511,31.738,41.992,39.062,38.086,-0.488
1578401576.515,40.527,46.875,44.922,37.109,-49.316
1578401576.519,49.316,48.340,39.062,36.133,-34.668
1578401576.523,40.039,42.969,36.133,35.156,12.207
1578401576.527,31.250,38.086,38.086,37.598,35.156
1578401576.530,32.227,41.016,36.621,38.086,43.457
1578401576.534,29.297,48.828,43.457,34.180,78.125
1578401576.538,34.668,47.852,48.828,39.062,54.688
1578401576.542,41.016,42.480,40.039,39.062,17.578
1578401576.546,44.922,45.898,40.039,33.203,31.738
1578401576.550,40.527,48.340,45.410,28.809,73.242
1578401576.554,28.809,38.086,37.598,18.555,40.039
1578401576.558,37.109,34.668,35.156,14.160,24.414
1578401576.562,49.805,43.945,32.227,24.902,78.613
1578401576.566,39.551,50.781,33.203,34.180,63.477
1578401576.569,23.438,45.898,37.598,32.715,28.320
1578401576.573,20.020,34.180,38.086,29.785,25.879
1578401576.577,26.367,34.180,39.551,29.297,55.664
1578401576.581,35.156,47.852,51.270,33.691,34.180
1578401576.585,26.855,43.945,51.270,29.785,11.230
1578401576.589,19.043,35.156,38.574,26.855,20.996
1578401576.593,25.391,43.945,38.086,26.367,-3.906
1578401576.597,35.645,40.527,34.180,20.996,12.695
1578401576.601,41.016,40.527,28.809,24.414,34.180
1578401576.605,36.133,44.922,27.344,27.344,70.312
1578401576.609,32.227,33.691,41.504,26.367,85.449
1578401576.612,35.156,35.645,50.781,25.879,52.246
1578401576.616,30.273,35.156,37.598,20.996,65.918
1578401576.620,25.391,27.832,28.809,19.531,39.062
1578401576.624,27.832,32.715,31.250,28.809,36.133
1578401576.628,28.320,33.691,33.691,40.527,64.941
1578401576.632,33.691,40.039,26.855,39.551,66.895
1578401576.636,36.133,43.457,31.250,26.367,59.082
1578401576.640,38.086,38.086,42.480,28.809,12.695
1578401576.644,40.527,38.574,41.016,36.621,-4.883
1578401576.648,40.527,41.504,41.992,41.504,28.809
1578401576.652,39.551,44.434,39.062,41.504,31.738
1578401576.655,38.574,39.062,26.855,26.367,18.555
1578401576.659,38.086,36.133,23.926,23.438,46.387
1578401576.663,34.180,34.180,27.832,30.762,48.340
1578401576.667,31.250,35.645,34.668,37.598,-11.719
1578401576.671,25.391,40.527,35.645,37.109,-10.254
1578401576.675,26.855,40.527,26.855,28.809,40.039
1578401576.679,44.434,39.062,23.438,26.855,41.992
1578401576.683,58.594,41.992,32.227,41.504,41.504
1578401576.687,50.781,37.109,34.668,40.527,74.219
1578401576.691,36.621,37.109,42.480,31.250,78.125
1578401576.694,33.203,38.574,48.828,27.832,39.551
1578401576.698,41.016,34.180,41.992,22.949,38.574
1578401576.702,46.387,39.551,40.039,30.762,36.621
1578401576.706,41.992,46.875,41.016,39.551,42.969
1578401576.710,37.598,42.480,39.062,41.992,38.086
1578401576.714,41.992,40.527,38.574,40.527,13.184
1578401576.718,48.828,41.016,41.016,40.039,37.109
1578401576.722,50.293,39.062,44.922,44.922,-5.859
1578401576.726,47.852,44.922,50.781,49.805,-4.395
1578401576.730,31.738,41.504,50.293,41.016,35.645
1578401576.734,22.461,31.250,34.668,33.691,28.320
1578401576.737,32.715,38.086,32.715,34.668,10.742
1578401576.741,37.598,43.945,38.574,29.785,51.270
1578401576.745,27.832,41.504,30.762,28.320,93.750
1578401576.749,20.020,42.480,37.598,38.574,99.609
1578401576.753,23.438,44.434,47.852,36.621,63.965
1578401576.757,33.691,50.293,45.898,27.344,11.230
1578401576.761,38.574,46.875,47.363,28.320,-4.883
1578401576.765,31.738,39.062,42.969,29.297,9.277
1578401576.769,26.855,36.621,35.156,29.785,41.992
1578401576.773,29.297,45.410,34.180,33.691,5.371
1578401576.777,31.738,48.340,32.227,27.832,-9.766
1578401576.780,33.691,43.457,32.227,29.785,26.855
1578401576.784,37.598,42.969,35.156,41.504,40.527
1578401576.788,37.598,42.480,40.039,43.457,38.086
1578401576.792,37.109,43.457,48.340,40.527,10.254
1578401576.796,43.457,40.039,41.504,41.992,13.184
1578401576.800,46.387,47.852,36.133,40.527,16.113
1578401576.804,39.551,54.199,37.109,38.574,4.883
1578401576.808,35.645,54.199,35.156,40.039,29.785
1578401576.812,33.203,53.223,32.715,33.691,34.668
1578401576.816,33.203,50.293,33.691,27.344,87.402
1578401576.819,36.133,51.270,35.156,29.297,61.523
1578401576.823,32.227,47.852,36.621,33.691,19.043
1578401576.827,29.785,37.598,37.109,32.715,80.566
1578401576.831,33.203,36.621,32.227,31.250,33.691
1578401576.835,30.762,47.363,28.809,28.320,37.109
1578401576.839,33.691,52.734,27.832,30.273,43.945
1578401576.843,39.551,51.758,42.969,39.551,41.016
1578401576.847,29.297,43.945,43.457,40.527,70.801
1578401576.851,23.438,35.645,27.832,36.133,2.930
1578401576.855,31.738,40.527,34.668,37.109,-1.953
1578401576.859,39.551,44.922,37.598,36.133,31.738
1578401576.862,44.434,40.527,34.668,43.945,6.348
1578401576.866,40.039,38.086,32.715,51.270,30.762
1578401576.870,33.203,45.410,24.414,48.340,33.203
1578401576.874,38.086,48.340,37.109,41.016,78.125
1578401576.878,41.992,47.363,47.852,30.273,97.656
1578401576.882,40.039,51.758,43.945,33.691,75.684
1578401576.886,31.738,45.410,40.527,40.527,46.387
1578401576.890,26.367,41.992,40.527,37.109,42.969
1578401576.894,27.344,42.480,38.574,32.227,64.941
1578401576.898,30.273,41.992,32.227,32.715,16.113
1578401576.902,36.133,40.527,28.809,39.062,-4.883
1578401576.905,48.828,43.945,33.203,54.199,37.109
1578401576.909,50.293,52.734,42.969,58.105,21.973
1578401576.913,35.645,51.270,41.016,40.527,38.086
1578401576.917,28.320,41.016,39.551,30.273,43.457
1578401576.921,33.203,39.062,36.133,23.926,15.137
1578401576.925,37.598,41.504,28.809,26.367,2.930
1578401576.929,30.762,42.969,31.250,25.391,-6.836
1578401576.933,31.250,41.992,34.180,18.066,-13.672
1578401576.937,42.480,45.898,36.133,18.066,-35.645
1578401576.941,40.039,40.527,36.621,21.484,30.762
1578401576.944,26.367,29.297,30.273,18.555,78.125
1578401576.948,17.090,32.227,27.832,12.207,77.637
1578401576.952,21.973,39.551,32.715,14.648,99.609
1578401576.956,29.297,41.992,41.016,12.695,71.777
1578401576.960,38.086,41.016,43.945,16.113,19.043
1578401576.964,37.109,42.969,38.574,28.320,31.250
1578401576.968,28.320,40.527,38.086,35.645,41.504
1578401576.972,26.367,39.551,36.133,36.133,26.855
1578401576.976,35.156,45.898,41.016,39.062,56.641
1578401576.980,41.992,46.875,44.434,37.109,78.125
1578401576.984,39.551,38.574,39.062,30.762,68.359
1578401576.987,34.180,39.062,41.016,35.645,49.805
1578401576.991,25.879,42.969,39.551,36.133,22.461
1578401576.995,28.320,38.086,41.992,31.738,-40.527
1578401576.999,34.180,40.039,43.457,30.273,-21.973
1578401577.003,39.551,47.363,42.480,36.133,32.715
1578401577.007,37.109,41.992,38.574,41.016,16.602
1578401577.011,24.902,37.598,34.668,33.203,12.695
1578401577.015,27.832,37.598,44.434,31.738,-11.230
1578401577.019,42.969,44.434,47.852,37.109,-4.883
1578401577.023,46.875,49.316,46.387,39.551,37.109
1578401577.027,43.457,48.340,48.340,40.039,56.641
1578401577.030,32.227,42.480,41.504,33.203,46.875
1578401577.034,20.996,33.691,28.320,24.414,42.480
1578401577.038,30.762,36.133,30.762,25.391,33.203
1578401577.042,37.109,42.480,36.133,28.809,58.594
1578401577.046,34.668,43.457,31.738,30.762,56.641
1578401577.050,32.715,38.574,35.156,36.621,101.562
1578401577.054,38.086,36.621,43.945,39.551,33.691
1578401577.058,40.527,46.875,42.969,37.598,-22.461
1578401577.062,38.574,47.363,37.109,41.504,13.184
1578401577.066,36.621,40.039,35.645,44.922,-0.977
1578401577.069,34.668,42.969,42.480,42.969,16.602
1578401577.073,35.156,43.945,42.480,35.645,-25.879
1578401577.077,35.645,45.410,34.180,25.879,-56.641
1578401577.081,40.039,41.992,35.645,27.344,-41.504
1578401577.085,39.062,37.598,40.039,35.645,-7.324
1578401577.089,32.227,41.992,43.457,37.109,-44.922
1578401577.093,29.785,42.969,37.109,28.809,-37.109
1578401577.097,38.086,44.922,25.879,26.855,48.340
1578401577.101,50.781,45.410,35.156,30.762,49.316
1578401577.105,43.457,39.551,38.086,22.949,78.125
1578401577.109,30.762,37.109,31.250,19.043,61.035
1578401577.112,26.855,38.574,31.738,20.996,20.020
1578401577.116,33.203,45.410,37.598,18.555,78.613
1578401577.120,41.992,53.223,40.527,25.391,62.988
1578401577.124,31.250,47.852,38.574,34.180,10.254
1578401577.128,23.438,46.387,39.062,38.574,33.691
1578401577.132,25.879,49.805,37.109,35.645,71.289
1578401577.136,23.438,36.133,30.762,24.414,42.480
1578401577.140,27.832,27.832,31.250,22.461,31.738
1578401577.144,30.762,36.621,32.227,25.391,42.969
1578401577.148,23.438,41.992,35.156,29.297,34.668
1578401577.152,21.973,42.480,40.527,29.785,-18.555
1578401577.155,26.367,44.434,44.922,26.855,-15.137
1578401577.159,34.668,40.527,46.387,28.809,45.898
1578401577.163,39.062,41.504,37.598,30.762,15.137
1578401577.167,32.715,50.293,38.086,36.621,29.297
1578401577.171,21.484,46.875,38.574,37.598,53.223
1578401577.175,21.484,40.527,31.250,29.785,60.059
1578401577.179,35.156,45.898,32.715,29.785,40.039
1578401577.183,41.504,48.828,37.598,31.250,8.301
1578401577.187,37.109,44.922,37.109,29.297,35.156
1578401577.191,30.273,45.898,40.527,27.832,75.195
1578401577.194,25.391,43.945,40.527,20.996,73.730
1578401577.198,26.855,41.992,26.855,19.531,44.922
1578401577.202,22.949,44.434,26.855,24.414,31.738
1578401577.206,14.160,41.992,33.691,24.414,19.531
1578401577.210,14.648,34.668,38.086,23.438,7.812
1578401577.214,25.391,38.086,39.062,27.832,24.902
1578401577.218,37.109,45.898,33.691,28.809,38.574
1578401577.222,42.480,51.270,38.574,28.320,47.363
1578401577.226,43.457,50.781,47.852,38.086,81.543
1578401577.230,41.504,48.828,46.875,41.016,131.836
1578401577.234,33.203,43.457,29.785,28.320,104.004
1578401577.237,33.691,39.551,31.250,29.297,11.719
1578401577.241,38.574,44.922,45.898,33.691,-16.113
1578401577.245,38.574,46.875,45.898,32.715,42.969
1578401577.249,37.598,44.922,38.574,35.156,77.148
1578401577.253,38.574,42.969,39.551,29.297,13.184
1578401577.257,43.457,42.480,45.898,28.320,28.320
1578401577.261,50.781,44.434,49.805,40.039,78.125
1578401577.265,50.293,44.922,54.688,43.945,101.074
1578401577.269,35.645,41.992,41.504,39.062,103.027
1578401577.273,20.996,41.504,25.391,38.086,35.645
1578401577.277,29.297,41.992,32.227,35.645,37.109
1578401577.280,46.387,46.875,46.875,39.551,8.301
1578401577.284,47.852,57.617,48.828,42.480,-29.785
1578401577.288,41.016,53.711,46.387,37.598,-36.133
1578401577.292,30.273,43.945,48.340,33.691,7.812
1578401577.296,31.738,42.969,55.176,30.273,9.766
1578401577.300,32.227,39.062,45.410,19.531,26.855
1578401577.304,27.344,39.551,29.785,22.461,48.828
1578401577.308,27.832,46.875,32.715,28.320,67.383
1578401577.312,21.973,44.434,41.992,20.020,66.895
1578401577.316,23.438,42.969,43.945,18.066,73.730
1578401577.319,35.645,44.922,41.504,24.902,68.848
1578401577.323,36.133,45.898,44.922,28.809,64.941
1578401577.327,31.250,47.363,48.340,34.180,-2.930
1578401577.331,24.902,39.551,49.805,27.832,-43.457
1578401577.335,24.902,35.156,50.293,17.578,-10.742
1578401577.339,32.227,34.180,46.387,20.508,3.418
1578401577.343,29.785,36.621,42.969,27.344,11.719
1578401577.347,19.043,41.016,44.434,28.809,62.500
1578401577.351,11.230,42.480,53.711,33.691,75.684
1578401577.355,25.391,49.805,56.641,46.387,45.410
1578401577.359,40.527,47.852,47.852,44.434,92.285
1578401577.362,34.180,44.922,45.898,28.320,59.082
1578401577.366,19.531,46.875,46.387,25.879,22.461
1578401577.370,11.230,38.574,42.969,25.879,-15.137
1578401577.374,12.207,37.598,40.527,14.648,-9.766
1578401577.378,21.973,38.574,41.504,14.648,54.688
1578401577.382,31.738,41.504,43.945,22.949,52.246
1578401577.386,29.297,49.805,44.434,24.414,67.383
1578401577.390,24.902,48.340,40.527,26.367,106.445
1578401577.394,35.645,45.898,36.133,33.203,56.152
1578401577.398,46.875,46.387,38.086,41.016,9.766
1578401577.402,48.828,41.016,41.992,35.645,48.340
1578401577.405,45.410,41.016,42.969,27.832,85.449
1578401577.409,41.992,42.480,37.109,31.250,63.965
1578401577.413,41.016,41.504,31.738,32.715,-4.883
1578401577.417,37.109,49.316,40.527,25.391,9.766
1578401577.421,35.645,52.246,41.504,16.602,50.781
1578401577.425,34.668,48.828,38.574,20.508,14.160
1578401577.429,35.156,51.270,41.992,27.344,25.391
1578401577.433,35.645,47.852,40.039,23.926,36.621
1578401577.437,34.180,36.621,38.574,19.531,-19.531
1578401577.441,43.945,41.016,40.039,24.414,9.277
1578401577.444,48.340,45.410,45.410,36.621,49.805
1578401577.448,43.457,43.457,47.363,43.457,58.594
1578401577.452,36.621,52.246,40.039,44.434,44.922
1578401577.456,39.551,53.223,45.410,43.457,52.734
1578401577.460,53.223,47.852,51.270,51.758,63.965
1578401577.464,55.664,47.363,46.387,57.129,62.988
1578401577.468,45.410,44.922,42.480,47.852,29.297
1578401577.472,39.551,33.203,41.992,40.527,-6.836
1578401577.476,40.039,27.344,47.363,40.039,12.695
1578401577.480,47.852,39.551,49.316,43.457,16.602
1578401577.484,57.129,45.410,45.410,45.898,18.555
1578401577.487,51.758,41.504,40.527,42.969,-22.461
1578401577.491,44.434,42.480,42.480,36.133,15.625
1578401577.495,48.340,43.945,43.457,27.832,40.527
1578401577.499,60.547,57.129,53.223,32.715,43.457
1578401577.503,52.246,55.176,65.430,29.785,73.242
1578401577.507,19.043,33.691,46.387,11.719,13.184
1578401577.511,5.859,36.621,40.527,14.160,14.160
1578401577.515,9.277,45.410,51.758,21.484,7.324
1578401577.519,11.719,43.945,48.828,27.832,21.973
1578401577.523,8.301,39.551,41.016,31.738,91.797
1578401577.527,8.789,41.016,49.805,42.969,68.848
1578401577.530,12.207,41.992,66.406,51.758,31.738
1578401577.534,13.672,33.203,62.988,41.016,45.898
1578401577.538,28.320,33.203,60.059,31.738,7.812
1578401577.542,33.203,49.316,49.316,29.785,-3.418
1578401577.546,32.715,50.293,34.668,32.715,24.414
1578401577.550,35.156,43.945,40.527,30.273,-7.324
1578401577.554,36.621,46.387,42.480,22.949,17.578
1578401577.558,41.504,53.223,36.133,19.043,45.410
1578401577.562,50.293,56.641,37.598,16.602,48.828
1578401577.566,53.711,57.129,48.828,21.484,31.738
1578401577.569,44.434,51.270,50.293,16.113,31.738
1578401577.573,38.574,43.945,40.039,4.395,31.738
1578401577.577,44.922,41.016,41.016,8.301,-2.441
1578401577.581,41.504,42.480,43.945,8.789,55.664
1578401577.585,27.344,41.992,42.969,3.418,94.238
1578401577.589,14.648,48.340,45.410,8.301,61.523
1578401577.593,11.719,50.293,46.875,10.742,61.035
1578401577.597,14.160,41.992,41.504,6.836,47.363
1578401577.601,19.043,41.992,36.621,8.789,6.348
1578401577.605,20.996,39.551,34.180,15.625,22.461
1578401577.609,7.812,33.203,34.180,18.066,83.984
1578401577.612,0.977,33.203,31.250,17.090,92.773
1578401577.616,10.742,32.715,29.785,20.508,51.270
1578401577.620,25.391,31.738,37.598,31.738,22.461
1578401577.624,28.320,38.086,43.945,42.480,7.324
1578401577.628,27.832,41.016,44.434,48.340,15.137
1578401577.632,28.320,42.480,37.598,45.898,28.320
1578401577.636,37.109,53.711,39.062,41.016,40.039
1578401577.640,44.922,55.664,40.039,35.156,3.418
1578401577.644,38.574,47.363,32.227,33.691,-27.344
1578401577.648,38.086,46.875,31.738,41.016,24.414
1578401577.652,46.387,43.945,38.086,48.340,9.766
1578401577.655,38.574,41.992,42.969,34.668,-12.695
1578401577.659,35.156,48.340,37.109,23.926,64.453
1578401577.663,41.016,48.828,38.086,35.156,80.566
1578401577.667,29.785,49.805,40.039,32.715,26.855
1578401577.671,21.973,50.781,36.133,20.996,40.527
1578401577.675,23.438,40.527,35.645,12.695,9.277
1578401577.679,25.879,36.621,35.645,12.207,-25.879
1578401577.683,23.438,38.574,39.062,23.926,5.371
1578401577.687,11.719,29.297,41.016,25.879,59.570
1578401577.691,7.324,25.879,40.527,24.414,27.344
1578401577.694,6.836,28.809,41.504,23.438,12.695
1578401577.698,12.207,33.691,46.875,25.391,31.250
1578401577.702,20.508,41.016,50.293,35.156,13.672
1578401577.706,4.883,35.156,44.922,37.598,15.137
1578401577.710,-5.371,28.320,40.039,36.621,9.766
1578401577.714,3.418,30.273,42.480,41.504,30.762
1578401577.718,13.184,31.250,45.898,45.410,-18.555
1578401577.722,25.391,30.762,41.992,48.340,-9.766
1578401577.726,37.109,34.668,46.875,52.246,11.719
1578401577.730,41.016,41.504,47.363,51.758,-43.945
1578401577.734,43.945,44.922,49.805,44.434,-39.551
1578401577.737,52.734,42.480,58.105,46.875,0.000
1578401577.741,58.105,42.969,48.340,50.781,-17.578
1578401577.745,49.805,40.527,34.668,37.109,68.359
1578401577.749,45.898,40.527,33.691,31.738,87.402
1578401577.753,46.387,47.363,39.551,34.180,9.277
1578401577.757,50.293,51.270,39.551,24.414,-9.277
1578401577.761,54.688,52.246,39.551,16.602,32.227
1578401577.765,53.223,53.223,43.945,19.531,52.246
1578401577.769,45.898,48.340,51.758,24.414,33.691
1578401577.773,40.527,41.992,49.805,27.344,42.969
1578401577.777,34.180,40.527,37.109,17.578,36.621
1578401577.780,29.785,37.109,31.250,17.090,41.504
1578401577.784,34.668,37.598,29.785,29.785,13.672
1578401577.788,32.227,38.086,36.133,36.133,24.414
1578401577.792,28.809,35.645,41.504,40.039,72.266
1578401577.796,31.250,39.551,39.062,36.133,64.941
1578401577.800,41.016,47.363,48.828,43.457,37.109
1578401577.804,52.246,48.340,53.711,54.199,30.762
1578401577.808,38.574,36.133,47.363,48.340,50.293
1578401577.812,28.809,27.344,38.574,42.969,46.875
1578401577.816,42.969,24.414,33.691,48.340,23.926
1578401577.819,53.711,25.879,38.086,53.223,7.812
1578401577.823,54.199,37.598,40.039,56.641,70.801
1578401577.827,43.945,33.203,40.527,54.199,71.289
1578401577.831,36.133,33.203,40.527,46.875,-8.789
1578401577.835,36.133,35.156,43.457,35.645,0.977
1578401577.839,36.133,29.297,46.387,26.855,18.555
1578401577.843,35.645,39.062,46.875,29.785,5.371
1578401577.847,27.832,43.457,39.062,30.762,18.555
1578401577.851,17.578,38.086,30.762,28.809,54.688
1578401577.855,16.602,43.945,33.691,26.855,70.801
1578401577.859,26.855,53.223,44.922,26.855,35.156
1578401577.862,26.367,46.387,45.410,25.391,16.602
1578401577.866,21.484,39.062,33.203,23.438,16.113
1578401577.870,23.438,38.574,39.062,21.484,69.824
1578401577.874,20.508,40.039,41.992,14.160,143.555
1578401577.878,27.344,43.945,35.645,9.277,104.492
1578401577.882,37.598,49.316,41.016,15.625,64.941
1578401577.886,43.457,53.223,35.156,28.320,69.336
1578401577.890,48.340,47.852,33.691,40.039,71.777
1578401577.894,44.434,43.457,47.852,41.504,62.988
1578401577.898,32.227,44.434,51.270,28.809,18.555
1578401577.902,41.504,45.898,40.527,34.668,-21.973
1578401577.905,38.086,41.992,41.992,38.086,25.879
1578401577.909,20.020,35.645,39.551,26.855,70.312
1578401577.913,24.902,37.109,41.992,28.320,47.852
1578401577.917,22.949,41.504,51.758,22.461,-11.230
1578401577.921,28.320,41.504,48.828,25.391,-4.395
1578401577.925,31.250,39.062,45.898,28.809,79.590
1578401577.929,19.043,39.551,51.758,27.832,63.965
1578401577.933,10.742,34.180,50.781,29.785,4.883
1578401577.937,9.766,29.297,40.039,24.414,2.441
1578401577.941,17.090,35.156,43.945,27.344,14.648
1578401577.944,21.484,40.039,48.828,37.598,6.836
1578401577.948,16.113,39.062,44.434,34.668,38.574
1578401577.952,16.602,43.457,40.039,29.785,45.410
1578401577.956,27.832,46.387,41.504,26.855,14.648
1578401577.960,38.086,45.898,47.363,27.344,71.289
1578401577.964,45.410,46.875,52.246,38.086,43.457
1578401577.968,49.805,40.527,52.734,37.598,49.316
1578401577.972,38.574,38.086,41.016,25.391,95.215
1578401577.976,39.062,43.945,39.551,24.902,45.410
1578401577.980,44.922,45.898,48.340,23.926,32.715
1578401577.984,29.785,44.434,40.039,17.090,70.312
1578401577.987,20.508,41.016,40.527,16.602,51.758
1578401577.991,24.902,44.434,47.852,17.090,26.855
1578401577.995,21.973,42.969,43.457,15.137,63.477
1578401577.999,21.484,39.551,43.457,17.090,35.156
1578401578.003,31.738,44.922,45.898,21.484,52.246
1578401578.007,34.668,47.852,39.551,26.367,63.965
1578401578.011,21.484,42.969,35.156,25.879,40.039
1578401578.015,18.066,41.504,37.598,23.926,17.578
1578401578.019,26.855,44.434,47.363,32.227,-31.738
1578401578.023,28.320,42.969,46.387,40.039,-1.953
1578401578.027,31.250,42.480,38.574,41.016,35.156
1578401578.030,29.785,41.504,49.316,39.062,15.625
1578401578.034,23.438,39.062,52.734,33.691,-13.672
1578401578.038,23.438,44.434,49.316,29.297,-14.648
1578401578.042,46.875,47.363,52.246,49.316,23.926
1578401578.046,55.176,50.293,53.711,54.199,30.762
1578401578.050,17.090,56.152,44.434,13.672,29.785
1578401578.054,0.000,53.223,39.551,-8.301,0.977
1578401578.058,20.020,50.293,47.852,1.953,-9.277
1578401578.062,10.742,60.059,51.270,-12.695,24.414
1578401578.066,-7.812,58.105,44.434,-22.949,20.508
1578401578.069,-3.418,50.781,47.852,-12.695,42.969
1578401578.073,-20.996,51.758,49.316,-35.156,54.199
1578401578.077,-18.066,52.246,49.316,-31.250,58.594
1578401578.081,-13.672,56.152,50.781,-31.250,63.965
1578401578.085,-14.160,48.828,52.734,-29.785,3.906
1578401578.089,-16.602,50.293,51.758,-14.160,16.602
1578401578.093,-21.484,48.828,47.363,-16.602,13.184
1578401578.097,-3.906,45.410,45.410,-8.789,21.973
1578401578.101,11.719,41.504,43.457,0.488,77.148
1578401578.105,20.020,41.016,41.016,8.301,69.824
1578401578.109,27.832,51.270,41.016,16.113,105.469
1578401578.112,21.973,50.293,42.969,15.625,76.172
1578401578.116,18.066,40.039,43.457,12.207,62.012
1578401578.120,31.250,40.527,52.246,15.137,71.289
1578401578.124,31.250,48.828,42.969,23.438,19.531
1578401578.128,21.973,42.969,37.598,32.227,31.738
1578401578.132,22.461,41.016,47.852,36.133,50.781
1578401578.136,24.902,44.434,45.898,27.832,23.926
1578401578.140,36.133,45.898,45.410,25.879,39.062
1578401578.144,41.016,47.852,41.016,34.668,58.105
1578401578.148,29.785,40.527,31.738,35.645,32.227
1578401578.152,27.832,36.621,37.109,35.156,9.277
1578401578.155,31.250,37.598,45.410,28.809,14.160
1578401578.159,34.180,38.574,44.434,30.273,10.742
1578401578.163,33.203,41.016,43.945,37.598,-0.977
1578401578.167,25.391,35.645,40.527,41.992,3.418
1578401578.171,23.438,33.203,39.551,42.969,26.855
1578401578.175,31.250,38.574,41.016,40.039,28.809
1578401578.179,41.504,38.574,33.203,41.504,26.367
1578401578.183,51.758,43.457,38.574,49.316,13.672
1578401578.187,52.734,45.898,44.922,57.617,18.066
1578401578.191,49.805,41.504,46.387,64.941,51.270
1578401578.194,48.340,35.156,41.992,57.617,85.938
1578401578.198,60.547,41.992,40.527,49.805,10.742
1578401578.202,66.895,50.293,42.480,52.246,-54.199
1578401578.206,53.711,45.410,32.715,44.922,1.953
1578401578.210,40.527,48.340,36.621,43.457,9.766
1578401578.214,36.133,54.199,39.551,45.410,-14.648
1578401578.218,39.551,51.758,37.598,39.062,-17.090
1578401578.222,35.645,44.434,40.039,33.203,46.387
1578401578.226,30.762,48.340,47.852,37.598,58.105
1578401578.230,17.090,47.852,45.898,36.133,40.039
1578401578.234,10.254,34.180,35.645,26.367,54.688
1578401578.237,21.484,40.039,44.922,25.391,50.781
1578401578.241,30.273,43.945,51.758,22.949,50.293
1578401578.245,29.297,37.109,42.480,18.555,84.961
1578401578.249,24.414,38.574,37.109,22.949,51.270
1578401578.253,24.414,43.457,44.434,25.391,10.254
1578401578.257,26.855,39.551,41.016,13.672,-11.719
1578401578.261,33.203,45.410,36.133,13.184,30.273
1578401578.265,38.086,51.270,41.016,23.926,51.758
1578401578.269,27.344,40.527,30.762,18.066,51.270
1578401578.273,25.391,40.039,33.203,18.066,55.664
1578401578.277,33.203,41.504,47.363,21.484,-5.859
1578401578.280,30.762,32.227,41.016,17.578,4.395
1578401578.284,25.879,34.668,37.109,20.996,59.082
1578401578.288,25.879,42.480,42.969,28.320,111.816
1578401578.292,24.902,41.992,49.316,35.645,73.730
1578401578.296,29.297,44.922,51.758,39.551,62.012
1578401578.300,33.203,41.016,50.293,36.621,91.309
1578401578.304,24.902,37.598,51.758,35.156,34.668
1578401578.308,20.020,40.039,43.945,37.598,41.504
1578401578.312,27.832,45.410,48.340,48.340,84.961
1578401578.316,29.297,47.363,55.664,42.969,29.785
1578401578.319,23.926,46.875,41.504,19.043,6.836
1578401578.323,32.715,51.758,37.598,20.996,29.297
1578401578.327,30.273,48.828,40.527,20.996,44.922
1578401578.331,21.973,39.551,32.227,8.789,49.316
1578401578.335,25.879,35.645,30.762,5.371,7.324
1578401578.339,31.250,40.039,36.133,1.953,-17.090
1578401578.343,41.504,42.969,38.574,9.277,8.301
1578401578.347,40.527,39.062,41.016,15.625,31.738
1578401578.351,40.039,40.527,46.875,17.090,-8.301
1578401578.355,39.551,42.969,53.223,21.484,-37.109
1578401578.359,34.180,35.156,46.875,19.043,-10.742
1578401578.362,38.574,30.273,38.086,23.926,11.719
1578401578.366,31.250,37.598,43.945,35.156,27.832
1578401578.370,19.531,41.504,47.363,38.574,47.363
1578401578.374,18.066,41.504,47.852,37.598,-15.625
1578401578.378,27.832,45.898,50.293,37.598,10.254
1578401578.382,35.156,49.316,45.898,37.598,78.613
1578401578.386,34.180,45.410,41.016,37.598,63.965
1578401578.390,30.762,43.945,41.016,40.039,25.391
1578401578.394,28.320,43.945,35.645,32.715,41.016
1578401578.398,28.809,50.293,42.480,31.250,101.562
1578401578.402,34.668,52.734,44.922,41.504,57.129
1578401578.405,32.715,45.898,34.668,37.598,-8.789
1578401578.409,28.320,46.387,35.645,31.738,12.695
1578401578.413,36.133,49.316,40.039,32.715,27.344
1578401578.417,36.133,49.805,37.109,23.926,13.184
1578401578.421,33.691,43.457,36.621,12.695,-3.418
1578401578.425,31.738,38.574,43.945,11.230,57.129
1578401578.429,25.879,46.875,44.922,15.625,49.316
1578401578.433,25.391,52.734,41.504,12.695,59.082
1578401578.437,28.809,44.922,45.410,8.301,81.055
1578401578.441,35.156,40.039,47.363,12.695,68.848
1578401578.444,35.156,37.598,44.434,15.625,32.715
1578401578.448,27.832,31.738,42.480,14.648,43.945
1578401578.452,28.320,32.227,39.551,19.043,77.148
1578401578.456,34.180,38.086,40.039,24.902,63.477
1578401578.460,41.992,38.574,44.922,30.762,34.668
1578401578.464,44.922,41.016,51.758,37.109,28.320
1578401578.468,39.551,48.340,50.781,43.945,-25.391
1578401578.472,30.762,42.969,44.922,42.480,-20.508
1578401578.476,38.574,46.387,53.711,46.875,56.641
1578401578.480,46.875,56.152,52.734,50.293,36.621
1578401578.484,42.480,50.781,41.016,47.852,25.391
1578401578.487,31.250,41.992,41.992,49.805,28.320
1578401578.491,20.020,36.621,37.598,47.852,83.496
1578401578.495,26.367,39.551,35.645,46.387,55.176
1578401578.499,37.598,51.758,49.316,44.922,-51.270
1578401578.503,43.457,58.105,52.734,48.340,-10.254
1578401578.507,40.039,53.223,46.875,46.875,90.332
1578401578.511,32.715,46.387,42.480,37.109,72.754
1578401578.515,38.574,44.434,45.410,32.715,55.664
1578401578.519,42.969,42.969,47.363,31.250,54.199
1578401578.523,47.363,48.828,42.969,35.156,57.617
1578401578.527,55.176,54.199,46.875,41.016,54.688
1578401578.530,47.852,46.875,52.734,35.156,9.766
1578401578.534,34.668,40.039,46.387,27.344,41.504
1578401578.538,38.574,45.410,43.457,30.762,52.246
1578401578.542,43.457,43.457,42.480,33.691,52.734
1578401578.546,33.691,36.133,35.156,35.645,81.543
1578401578.550,24.414,39.062,42.969,41.992,24.414
1578401578.554,24.414,39.062,43.945,42.969,9.277
1578401578.558,31.738,39.551,41.992,41.992,20.020
1578401578.562,34.668,41.504,52.734,44.434,14.160
1578401578.566,33.691,42.969,55.664,46.875,-14.160
1578401578.569,23.438,31.738,53.711,42.480,-4.883
1578401578.573,10.742,24.902,41.016,30.273,24.902
1578401578.577,16.113,35.156,38.574,27.832,28.809
1578401578.581,25.879,40.527,44.922,31.250,0.977
1578401578.585,28.809,36.621,41.016,29.785,18.066
1578401578.589,28.809,41.504,48.828,39.551,56.152
1578401578.593,26.855,52.246,55.664,35.156,62.988
1578401578.597,30.762,45.898,45.898,19.531,40.527
1578401578.601,43.945,47.363,42.969,28.809,47.852
1578401578.605,40.527,51.270,48.828,37.109,37.109
1578401578.609,33.691,44.922,44.922,32.715,-26.855
1578401578.612,28.320,41.016,31.738,22.949,5.859
1578401578.616,28.809,38.574,35.156,13.672,37.598
1578401578.620,37.598,50.781,44.922,18.555,66.895
1578401578.624,33.691,56.152,45.410,22.949,81.543
1578401578.628,28.809,51.270,42.969,25.391,59.082
1578401578.632,29.785,51.270,40.527,22.949,52.734
1578401578.636,33.203,51.758,45.410,18.555,80.078
1578401578.640,46.875,57.617,45.898,27.832,56.641
1578401578.644,47.852,55.176,39.551,32.715,11.230
1578401578.648,36.133,45.898,29.297,34.180,86.914
1578401578.652,27.344,47.363,32.715,40.039,74.707
1578401578.655,24.902,49.316,41.504,41.504,20.508
1578401578.659,38.086,46.387,41.016,48.340,33.691
1578401578.663,36.621,40.527,37.598,44.434,20.996
1578401578.667,28.809,42.969,40.527,41.504,30.762
1578401578.671,30.762,53.223,48.340,47.363,17.090
1578401578.675,27.832,52.734,37.109,37.109,19.043
1578401578.679,29.297,49.316,34.180,31.738,29.297
1578401578.683,36.133,48.828,38.574,36.621,16.602
1578401578.687,28.320,46.875,33.691,29.297,58.105
1578401578.691,19.531,42.969,36.621,24.902,85.449
1578401578.694,23.926,37.598,38.574,26.855,14.160
1578401578.698,32.227,44.434,39.062,25.391,-52.734
1578401578.702,39.062,55.176,48.828,35.645,-10.254
1578401578.706,32.227,50.293,48.340,36.621,71.289
1578401578.710,19.531,39.062,32.715,22.461,57.129
1578401578.714,22.461,33.691,34.668,19.531,6.836
1578401578.718,30.762,36.133,45.898,23.926,25.879
1578401578.722,39.551,46.387,48.340,31.738,29.785
1578401578.726,38.086,55.664,46.387,35.645,33.203
1578401578.730,35.156,57.129,46.387,35.156,34.180
1578401578.734,40.527,52.246,49.805,32.715,12.695
1578401578.737,41.016,48.340,43.457,22.461,34.668
1578401578.741,42.969,49.316,35.156,20.508,10.742
1578401578.745,40.527,46.387,33.691,28.809,14.160
1578401578.749,38.574,52.246,31.738,35.645,58.594
1578401578.753,38.574,54.199,38.574,30.762,5.859
1578401578.757,34.180,41.504,41.504,23.438,-16.113
1578401578.761,32.227,41.504,35.645,22.949,18.555
1578401578.765,37.598,48.340,38.086,29.785,44.922
1578401578.769,33.203,49.805,55.176,40.039,50.781
1578401578.773,3.418,35.645,54.199,28.320,8.789
1578401578.777,-4.395,30.273,39.551,21.484,37.598
1578401578.780,9.277,43.457,44.922,28.320,43.945
1578401578.784,8.301,42.969,51.270,27.832,18.066
1578401578.788,16.113,38.086,47.363,36.621,62.012
1578401578.792,21.973,35.645,40.039,37.598,55.664
1578401578.796,30.273,37.598,40.039,31.250,60.547
1578401578.800,57.129,47.363,50.781,42.480,25.391
1578401578.804,62.500,47.852,54.199,48.340,-24.902
1578401578.808,46.387,36.621,40.039,38.086,-21.973
1578401578.812,42.969,37.109,33.691,33.691,-33.203
1578401578.816,45.410,44.434,36.621,33.203,27.344
1578401578.819,50.293,42.969,42.969,36.621,70.801
1578401578.823,52.246,39.062,49.316,38.574,41.992
1578401578.827,46.387,41.016,50.293,41.504,46.875
1578401578.831,43.945,48.828,57.617,50.293,51.270
1578401578.835,40.527,45.410,65.918,45.410,20.996
1578401578.839,33.691,32.715,51.758,22.949,-22.949
1578401578.843,26.855,34.180,44.434,15.137,10.254
1578401578.847,19.531,36.621,48.828,19.531,57.617
1578401578.851,12.207,31.738,47.852,20.508,86.914
1578401578.855,11.719,34.180,44.434,17.090,52.734
1578401578.859,22.461,40.039,40.039,16.602,-9.766
1578401578.862,24.902,37.109,47.363,27.832,-20.508
1578401578.866,16.113,34.180,49.805,35.156,-35.156
1578401578.870,12.207,27.832,40.039,35.645,0.000
1578401578.874,15.137,25.879,35.156,40.039,52.246
1578401578.878,28.809,36.621,45.898,48.340,-3.906
1578401578.882,39.551,40.039,46.387,52.246,-33.691
1578401578.886,39.551,43.457,40.039,58.105,62.012
1578401578.890,42.480,49.805,41.504,66.406,73.242
1578401578.894,42.969,48.828,42.480,62.988,49.316
1578401578.898,47.852,46.387,46.875,56.152,61.035
1578401578.902,71.289,59.570,49.805,62.012,14.160
1578401578.905,78.125,64.941,50.293,64.453,11.719
1578401578.909,65.430,48.828,41.016,61.035,44.434
1578401578.913,66.406,41.504,39.551,58.594,45.898
1578401578.917,70.312,36.621,45.410,57.617,50.293
1578401578.921,77.148,39.551,41.504,58.105,69.824
1578401578.925,78.613,50.781,48.340,62.500,35.156
1578401578.929,72.754,45.898,55.176,69.824,79.102
1578401578.933,64.453,41.504,55.176,68.848,90.332
1578401578.937,64.453,42.480,60.059,62.988,12.207
1578401578.941,67.383,40.527,50.781,61.035,45.410
1578401578.944,57.129,43.457,47.852,60.547,38.086
1578401578.948,41.016,46.387,49.316,54.688,82.520
1578401578.952,36.133,44.434,45.898,47.363,106.445
1578401578.956,32.715,42.969,52.246,40.527,47.363
1578401578.960,28.320,45.410,51.270,37.109,77.637
1578401578.964,33.203,51.758,51.758,41.992,59.570
1578401578.968,19.531,46.387,54.688,36.621,40.039
1578401578.972,0.977,41.016,46.387,26.855,16.113
1578401578.976,8.789,41.016,41.016,27.344,-5.859
1578401578.980,17.090,39.551,43.457,28.320,23.438
1578401578.984,15.137,45.410,39.551,26.367,80.078
1578401578.987,4.395,46.387,41.504,20.508,65.430
1578401578.991,-3.418,43.457,45.410,11.719,27.832
1578401578.995,3.906,42.480,44.434,11.719,35.156
1578401578.999,13.184,48.340,43.457,15.625,22.461
1578401579.003,19.531,49.316,39.062,21.484,19.043
1578401579.007,21.973,41.016,38.574,25.391,58.594
1578401579.011,18.066,34.180,35.645,17.090,22.949
1578401579.015,19.531,34.668,31.738,13.672,-0.977
1578401579.019,29.297,40.039,36.133,15.137,-7.324
1578401579.023,42.480,45.898,45.898,20.996,-23.926
1578401579.027,36.133,39.551,48.828,18.066,37.109
1578401579.030,23.926,40.039,45.410,17.090,6.348
1578401579.034,31.738,53.711,44.434,25.879,4.883
1578401579.038,37.109,50.781,40.527,20.020,74.707
1578401579.042,41.016,45.410,42.480,18.555,53.711
1578401579.046,43.945,41.992,41.016,28.320,61.523
1578401579.050,40.039,43.457,38.086,32.715,74.219
1578401579.054,38.086,48.340,51.758,32.715,15.137
1578401579.058,36.133,48.340,54.688,28.809,10.254
1578401579.062,36.621,45.410,54.688,32.227,33.203
1578401579.066,30.762,43.457,51.270,32.715,16.602
1578401579.069,14.160,41.016,44.434,22.949,18.066
1578401579.073,12.207,42.969,44.922,19.531,33.691
1578401579.077,20.508,41.504,37.598,22.949,26.367
1578401579.081,15.137,36.621,37.598,20.020,-1.465
1578401579.085,5.859,38.574,40.039,16.113,7.812
1578401579.089,-0.488,37.598,37.598,19.531,-8.301
1578401579.093,-2.441,37.109,39.062,14.648,-1.953
1578401579.097,3.906,40.039,35.645,8.301,-0.488
1578401579.101,10.254,48.828,39.551,13.184,-3.418
1578401579.105,16.602,52.734,40.039,20.996,73.242
1578401579.109,13.672,41.992,34.668,19.043,73.242
1578401579.112,13.672,39.551,40.039,19.043,57.129
1578401579.116,20.996,38.086,45.410,23.438,35.156
1578401579.120,26.855,32.715,41.992,20.996,19.531
1578401579.124,29.785,34.668,33.691,20.996,8.301
1578401579.128,23.438,37.109,33.691,22.461,36.133
1578401579.132,20.508,44.922,38.086,25.879,4.395
1578401579.136,20.508,47.852,35.645,21.973,9.766
1578401579.140,22.461,41.016,36.621,20.508,18.555
1578401579.144,29.297,44.434,44.434,29.297,-15.137
1578401579.148,20.508,48.828,38.086,25.391,1.465
1578401579.152,13.184,48.828,29.297,21.484,20.020
1578401579.155,18.555,43.945,37.598,21.973,65.430
1578401579.159,19.531,40.527,34.668,22.949,55.664
1578401579.163,26.855,48.340,34.668,36.133,15.137
1578401579.167,32.227,50.293,40.527,41.992,93.750
1578401579.171,29.297,45.410,36.621,35.645,95.215
1578401579.175,39.551,50.293,42.969,38.574,20.508
1578401579.179,42.969,54.688,47.852,37.598,64.453
1578401579.183,37.598,47.852,39.062,32.227,106.445
1578401579.187,36.621,35.645,34.180,34.668,89.355
1578401579.191,32.227,40.039,42.969,38.086,66.895
1578401579.194,29.297,51.758,45.410,37.109,27.832
1578401579.198,34.180,49.805,43.945,31.738,34.180
1578401579.202,41.016,44.434,48.340,38.086,15.137
1578401579.206,32.715,36.621,43.457,40.527,3.906
1578401579.210,28.809,42.480,37.109,38.574,63.477
1578401579.214,33.203,54.688,38.086,40.039,46.875
1578401579.218,24.414,45.898,32.715,28.320,-10.742
1578401579.222,25.879,41.016,24.414,23.926,18.555
1578401579.226,37.109,46.875,33.691,35.156,68.359
1578401579.230,27.832,39.062,38.086,33.691,80.566
1578401579.234,20.508,33.203,25.391,25.879,1.953
1578401579.237,28.809,41.504,26.367,26.367,-35.645
1578401579.241,35.156,51.270,32.227,27.344,-11.719
1578401579.245,39.551,57.617,32.227,35.156,17.578
1578401579.249,38.086,56.152,25.391,36.133,77.637
1578401579.253,27.832,41.992,20.020,21.973,34.180
1578401579.257,18.066,31.738,18.555,11.719,12.207
1578401579.261,18.555,37.598,14.648,14.160,29.297
1578401579.265,26.367,42.480,25.391,28.809,15.137
1578401579.269,23.438,41.016,22.949,32.715,50.781
1578401579.273,27.344,43.457,13.184,36.621,70.312
1578401579.277,31.250,41.504,13.672,33.691,52.246
1578401579.280,30.273,41.504,15.625,23.438,-4.883
1578401579.284,36.621,46.875,22.949,32.227,16.113
1578401579.288,36.621,42.969,30.273,42.969,63.965
1578401579.292,27.832,39.551,20.508,38.574,36.133
1578401579.296,29.297,42.969,13.184,33.203,25.879
1578401579.300,42.480,45.898,22.949,39.551,41.016
1578401579.304,50.781,43.457,16.602,47.363,38.574
1578401579.308,47.363,41.504,3.906,45.898,31.738
1578401579.312,45.410,47.852,15.625,51.758,16.113
1578401579.316,44.434,55.176,26.367,49.316,7.324
1578401579.319,40.039,48.828,20.996,36.621,-16.602
1578401579.323,41.016,41.992,13.672,33.691,-26.367
1578401579.327,31.738,47.852,8.301,31.738,23.438
1578401579.331,26.855,51.270,14.648,39.551,57.129
1578401579.335,30.762,41.016,22.949,37.598,18.066
1578401579.339,38.574,43.457,16.602,37.109,-6.348
1578401579.343,39.062,48.340,8.301,39.062,28.809
1578401579.347,36.133,44.922,10.742,36.621,-10.254
1578401579.351,43.457,43.945,2.930,40.039,-21.484
1578401579.355,48.828,42.480,4.883,42.969,52.734
1578401579.359,43.457,50.293,20.508,41.016,48.828
1578401579.362,39.062,53.223,18.066,33.691,84.961
1578401579.366,37.109,46.875,3.418,36.133,73.242
1578401579.370,27.344,44.922,1.953,38.574,15.137
1578401579.374,23.438,42.480,7.324,37.109,-1.465
1578401579.378,32.227,41.504,7.812,37.598,-0.488
1578401579.382,39.551,43.945,7.324,36.621,-3.418
1578401579.386,35.156,44.922,12.207,42.969,41.992
1578401579.390,33.203,46.875,20.996,51.270,39.062
1578401579.394,28.320,43.457,16.113,43.457,37.109
1578401579.398,30.273,41.992,-1.465,30.273,35.156
1578401579.402,47.852,51.270,-8.301,33.203,14.160
1578401579.405,48.340,48.340,-10.254,42.480,86.914
1578401579.409,44.922,38.574,-11.230,50.781,73.242
1578401579.413,43.457,39.551,-6.348,49.316,14.160
1578401579.417,44.922,41.992,0.977,49.805,37.598
1578401579.421,54.199,41.016,4.883,57.617,30.762
1578401579.425,49.805,40.039,-2.930,55.176,-11.719
1578401579.429,46.875,42.969,-5.859,55.176,61.035
1578401579.433,47.852,47.363,-7.812,49.316,122.070
1578401579.437,54.688,49.316,-7.324,43.457,50.293
1578401579.441,62.500,48.828,-6.836,46.387,-17.578
1578401579.444,60.547,51.270,-3.418,55.664,17.578
1578401579.448,57.129,47.852,1.465,66.895,35.645
1578401579.452,43.945,39.062,-3.418,59.082,15.137
1578401579.456,42.969,34.180,-9.766,47.363,55.176
1578401579.460,56.152,43.457,-8.301,49.316,80.566
1578401579.464,59.082,45.410,-5.371,58.594,7.324
1578401579.468,58.105,45.410,-11.230,64.941,-58.594
1578401579.472,49.805,47.363,-14.648,56.641,-43.457
1578401579.476,50.781,43.945,-9.277,49.805,18.066
1578401579.480,58.105,44.922,-6.836,49.805,47.852
1578401579.484,53.711,38.574,-15.625,52.734,63.477
1578401579.487,45.410,31.738,-20.996,52.246,65.918
1578401579.491,42.969,35.156,-19.531,51.758,39.551
1578401579.495,51.758,39.551,-20.020,55.176,3.906
1578401579.499,54.688,41.504,-22.949,49.805,7.812
1578401579.503,66.406,48.340,-13.184,59.082,29.785
1578401579.507,67.871,51.270,-10.254,63.965,73.242
1578401579.511,48.340,40.039,-20.020,51.758,95.703
1578401579.515,41.992,33.203,-26.367,43.457,45.898
1578401579.519,48.828,38.574,-24.414,37.109,0.000
1578401579.523,58.594,45.898,-20.020,43.945,-24.902
1578401579.527,61.523,47.852,-22.949,50.781,13.672
1578401579.530,58.105,47.852,-25.391,49.316,8.789
1578401579.534,56.641,47.363,-25.879,47.852,27.344
1578401579.538,67.871,55.176,-18.066,51.270,34.668
1578401579.542,73.242,50.293,-15.625,56.152,18.555
1578401579.546,60.059,35.156,-34.180,53.711,15.625
1578401579.550,52.246,41.504,-40.039,51.270,85.449
1578401579.554,57.617,48.340,-31.738,55.664,102.051
1578401579.558,63.965,49.316,-35.645,56.152,37.109
1578401579.562,62.988,48.340,-39.062,45.898,18.555
1578401579.566,71.777,51.758,-25.879,51.270,16.113
1578401579.569,67.871,49.316,-15.625,60.547,44.434
1578401579.573,46.387,33.691,-26.367,50.293,16.602
1578401579.577,50.781,32.227,-31.738,50.293,62.012
1578401579.581,62.988,40.039,-29.297,53.711,97.656
1578401579.585,66.406,47.363,-35.156,56.641,38.574
1578401579.589,62.012,40.527,-35.645,64.941,35.156
1578401579.593,55.176,35.645,-23.926,64.453,16.602
1578401579.597,60.059,47.363,-20.508,63.477,0.488
1578401579.601,67.871,50.781,-25.391,60.059,5.371
1578401579.605,67.383,42.969,-25.879,56.152,21.973
1578401579.609,62.988,34.668,-29.297,57.617,59.082
1578401579.612,58.105,37.109,-26.367,66.406,28.320
1578401579.616,59.570,45.898,-25.391,63.965,0.488
1578401579.620,56.152,44.922,-33.691,42.480,1.465
1578401579.624,47.852,47.852,-31.738,38.086,20.020
1578401579.628,48.340,46.387,-26.855,47.852,4.883
1578401579.632,48.340,43.457,-27.344,53.711,-8.301
1578401579.636,54.199,45.410,-29.785,60.059,26.367
1578401579.640,54.688,39.062,-39.062,59.082,64.941
1578401579.644,57.129,33.203,-41.016,57.617,101.074
1578401579.648,62.012,27.832,-34.668,62.500,82.520
1578401579.652,52.734,31.250,-38.574,55.176,7.812
1578401579.655,48.828,43.945,-44.434,51.758,-45.410
1578401579.659,54.688,46.387,-39.551,57.617,8.301
1578401579.663,58.594,39.062,-39.062,59.082,61.523
1578401579.667,55.176,31.738,-41.992,57.617,50.293
1578401579.671,46.387,28.809,-36.133,50.293,28.320
1578401579.675,40.039,27.832,-33.691,47.363,5.371
1578401579.679,48.340,20.020,-29.297,52.246,77.637
1578401579.683,62.500,26.855,-32.715,62.012,163.574
1578401579.687,66.895,41.504,-36.621,69.336,84.473
1578401579.691,67.383,33.691,-25.879,68.359,24.414
1578401579.694,60.059,21.484,-28.320,64.941,43.457
1578401579.698,53.223,29.297,-33.691,55.664,14.648
1578401579.702,61.523,29.785,-29.785,57.617,11.719
1578401579.706,67.871,29.785,-27.344,69.336,19.043
1578401579.710,64.941,30.273,-23.926,67.871,4.395
1578401579.714,57.129,27.832,-22.461,58.105,44.922
1578401579.718,52.246,23.926,-30.762,53.223,46.875
1578401579.722,55.664,19.531,-33.691,51.758,28.320
1578401579.726,62.012,24.414,-32.715,54.688,49.805
1578401579.730,62.988,25.879,-24.902,64.941,51.758
1578401579.734,59.570,27.344,-21.484,60.547,44.434
1578401579.737,67.871,25.391,-24.902,53.223,45.410
1578401579.741,79.590,19.043,-27.832,60.059,50.293
1578401579.745,81.055,19.531,-30.762,65.918,18.066
1578401579.749,67.383,23.926,-27.832,65.918,48.828
1578401579.753,58.594,17.090,-34.668,59.082,80.566
1578401579.757,63.477,10.254,-42.969,50.781,0.000
1578401579.761,67.383,11.719,-45.898,50.781,8.789
1578401579.765,67.383,13.672,-39.062,59.082,55.176
1578401579.769,68.359,8.789,-31.250,72.754,25.879
1578401579.773,70.312,16.602,-30.273,77.637,21.484
1578401579.777,57.129,24.414,-30.762,57.617,-21.484
1578401579.780,49.805,25.879,-27.832,48.828,-20.508
1578401579.784,62.988,24.902,-19.043,65.430,29.785
1578401579.788,58.105,15.137,-24.414,64.941,-8.301
1578401579.792,41.016,10.254,-37.109,52.734,52.246
1578401579.796,42.969,7.324,-36.133,50.781,74.219
1578401579.800,56.152,14.648,-32.227,52.734,29.297
1578401579.804,62.500,20.020,-26.367,55.176,50.293
1578401579.808,58.594,16.113,-24.902,53.223,39.551
1578401579.812,53.711,19.531,-30.273,59.082,16.113
1578401579.816,58.594,23.926,-29.785,64.941,34.180
1578401579.819,65.430,15.625,-33.203,54.688,44.922
1578401579.823,68.848,12.695,-27.832,51.758,11.719
1578401579.827,67.871,17.090,-29.297,58.594,7.812
1578401579.831,62.988,13.184,-40.039,54.199,40.039
1578401579.835,64.453,5.371,-38.086,42.969,20.508
1578401579.839,69.336,14.160,-33.691,43.945,-9.766
1578401579.843,69.336,21.484,-32.715,49.805,-4.883
1578401579.847,73.242,20.020,-26.367,66.895,4.395
1578401579.851,67.871,21.973,-20.996,71.289,24.902
1578401579.855,55.664,15.625,-35.156,56.641,36.621
1578401579.859,60.547,15.625,-31.250,58.594,59.570
1578401579.862,73.730,21.973,-21.484,66.406,55.176
1578401579.866,77.637,28.320,-26.855,72.754,84.961
1578401579.870,74.707,21.484,-25.391,80.078,63.477
1578401579.874,71.289,12.695,-24.414,72.754,15.137
1578401579.878,73.242,22.949,-27.832,64.453,20.508
1578401579.882,81.543,30.273,-15.137,70.801,5.859
1578401579.886,70.801,20.508,-13.184,64.453,53.711
1578401579.890,58.594,11.719,-24.414,62.988,90.332
1578401579.894,56.641,14.160,-16.113,63.477,58.594
1578401579.898,61.035,10.742,-12.695,57.617,39.062
1578401579.902,73.730,8.789,-14.648,58.594,24.902
1578401579.905,75.684,4.883,-16.602,62.988,7.324
1578401579.909,71.777,5.859,-11.230,68.359,36.133
1578401579.913,62.988,13.184,-8.789,66.406,38.086
1578401579.917,59.570,10.742,-20.508,60.547,19.531
1578401579.921,69.824,0.488,-27.344,54.199,43.945
1578401579.925,73.730,-1.953,-25.879,57.617,59.570
1578401579.929,63.965,-0.488,-22.461,65.918,76.172
1578401579.933,55.664,-0.488,-12.207,65.430,77.148
1578401579.937,55.176,-2.441,-4.395,60.547,11.719
1578401579.941,58.594,-8.789,-5.859,59.082,6.348
1578401579.944,64.941,-8.789,-9.277,68.359,47.363
1578401579.948,60.547,-12.207,-11.230,70.312,58.105
1578401579.952,48.340,-13.184,-16.602,66.406,25.391
1578401579.956,49.316,-17.578,-22.949,59.570,40.039
1578401579.960,55.664,-19.531,-18.066,56.152,68.359
1578401579.964,56.152,-20.996,-11.719,53.223,38.574
1578401579.968,53.223,-29.297,-8.301,55.176,25.879
1578401579.972,51.758,-31.250,-2.930,59.570,56.152
1578401579.976,50.293,-29.297,-11.719,48.828,49.316
1578401579.980,56.641,-31.738,-9.766,47.363,30.273
1578401579.984,67.383,-33.203,1.465,55.176,30.762
1578401579.987,64.941,-29.785,-8.789,54.199,35.156
1578401579.991,60.547,-32.227,-10.742,49.805,95.703
1578401579.995,52.246,-38.574,-3.418,46.875,64.453
1578401579.999,51.758,-36.621,-3.418,48.828,12.695
1578401580.003,58.105,-42.969,-6.836,47.852,33.203
1578401580.007,61.523,-44.922,-7.324,49.316,78.613
1578401580.011,57.617,-41.016,-2.930,51.270,101.562
1578401580.015,45.410,-47.852,-5.859,41.016,69.336
1578401580.019,45.898,-43.945,-17.090,37.598,57.617
1578401580.023,52.246,-38.574,-17.090,42.480,69.336
1578401580.027,52.246,-37.598,-8.301,40.039,67.383
1578401580.030,48.828,-34.668,-6.836,41.504,93.750
1578401580.034,46.875,-35.156,-6.836,48.340,87.891
1578401580.038,55.176,-32.715,-6.348,49.805,39.062
1578401580.042,62.012,-24.902,0.977,49.316,3.906
1578401580.046,57.617,-24.414,7.324,53.223,5.859
1578401580.050,54.199,-24.902,4.883,55.176,35.645
1578401580.054,51.270,-21.973,1.953,51.270,45.410
1578401580.058,56.152,-18.066,-3.906,45.410,27.832
1578401580.062,66.895,-9.277,-2.930,46.875,45.410
1578401580.066,72.266,0.488,4.883,51.270,38.574
1578401580.069,68.359,1.465,3.418,53.711,49.805
1578401580.073,59.082,0.000,-2.930,50.781,60.547
1578401580.077,51.758,-0.488,-1.465,49.805,-32.715
1578401580.081,53.223,0.488,3.906,61.523,-77.637
1578401580.085,60.059,-3.906,8.789,62.988,-23.438
1578401580.089,49.316,-7.812,4.395,53.711,24.414
1578401580.093,43.945,-5.371,1.953,55.664,32.715
1578401580.097,56.641,0.488,9.277,62.012,18.066
1578401580.101,61.035,2.930,9.766,62.012,52.246
1578401580.105,61.523,-0.977,9.277,59.570,68.848
1578401580.109,59.570,-4.395,8.301,55.176,24.414
1578401580.112,52.734,-3.906,4.395,55.664,16.602
1578401580.116,47.852,3.418,1.953,54.688,-16.602
1578401580.120,56.152,9.277,5.859,55.664,-19.043
1578401580.124,62.988,11.230,11.719,62.012,53.711
1578401580.128,54.688,6.348,10.742,57.129,71.289
1578401580.132,56.152,9.277,17.090,57.129,53.711
1578401580.136,56.641,6.348,15.137,51.270,-1.465
1578401580.140,52.734,-0.488,3.906,47.852,-31.250
1578401580.144,60.059,-0.977,8.301,53.711,11.719
1578401580.148,55.664,0.977,10.254,52.246,20.020
1578401580.152,49.316,6.348,7.324,52.246,38.574
1578401580.155,55.176,7.324,10.742,55.176,69.336
1578401580.159,57.617,-30.273,12.695,51.270,89.844
1578401580.163,61.035,-64.453,12.207,47.852,72.754
1578401580.167,60.059,-74.707,4.395,47.363,17.578
1578401580.171,59.082,-83.008,-1.953,49.805,52.246
1578401580.175,61.035,-84.961,12.695,51.270,54.199
1578401580.179,59.082,-89.844,22.461,44.922,62.988
1578401580.183,64.941,-81.055,21.484,51.270,68.848
1578401580.187,62.012,-79.590,13.184,54.199,17.090
1578401580.191,53.223,-87.402,10.742,52.734,-4.395
1578401580.194,55.664,-75.684,19.531,55.176,37.598
1578401580.198,54.199,-70.312,20.508,49.805,11.230
1578401580.202,48.828,-70.801,13.184,40.039,-32.715
1578401580.206,49.805,-65.918,5.859,40.039,26.367
1578401580.210,45.898,-63.965,10.254,42.969,58.594
1578401580.214,44.922,-61.035,8.301,46.875,-0.977
1578401580.218,58.594,-54.688,10.254,52.246,24.902
1578401580.222,65.918,-51.758,21.973,49.316,92.773
1578401580.226,67.871,-43.945,25.879,53.223,47.363
1578401580.230,67.871,-41.992,23.438,61.035,-14.648
1578401580.234,56.152,-45.410,10.742,52.734,-43.945
1578401580.237,46.387,-41.504,8.301,43.457,7.812
1578401580.241,48.828,-43.945,13.184,42.969,29.785
1578401580.245,43.945,-49.316,11.230,40.527,8.301
1578401580.249,40.527,-48.828,14.160,41.016,-2.441
1578401580.253,38.574,-33.203,19.531,36.621,20.508
1578401580.257,38.086,-24.414,17.090,32.227,45.898
1578401580.261,47.852,-24.414,14.648,37.109,34.180
1578401580.265,49.316,-20.508,21.973,41.504,57.617
1578401580.269,40.527,-23.926,24.902,42.969,63.965
1578401580.273,33.691,-32.227,16.113,33.691,52.734
1578401580.277,37.109,-34.668,16.602,34.180,30.273
1578401580.280,45.410,-23.438,22.949,36.133,-19.531
1578401580.284,52.246,-20.508,20.508,38.574,-18.555
1578401580.288,45.898,-28.320,17.578,44.434,-3.418
1578401580.292,40.039,-22.461,19.531,47.363,9.766
1578401580.296,47.852,-8.301,23.438,44.922,-0.488
1578401580.300,55.664,1.465,22.949,40.527,12.207
1578401580.304,59.570,2.441,28.320,44.922,49.316
1578401580.308,54.199,-3.418,31.738,50.293,60.547
1578401580.312,42.480,-10.254,29.297,51.758,40.039
1578401580.316,42.480,-9.766,29.785,47.363,2.930
1578401580.319,46.875,-1.465,27.832,46.875,21.973
1578401580.323,50.293,6.836,30.762,49.805,43.457
1578401580.327,51.270,9.766,38.574,55.176,42.480
1578401580.331,41.504,14.648,28.320,53.711,55.664
1578401580.335,35.156,18.555,15.625,42.969,29.785
1578401580.339,39.551,16.113,28.320,39.551,2.930
1578401580.343,49.316,24.414,35.645,42.969,-1.465
1578401580.347,45.410,22.461,23.438,35.156,-15.137
1578401580.351,36.133,12.207,28.809,31.738,42.969
1578401580.355,38.086,13.184,38.086,38.086,79.590
1578401580.359,50.781,18.555,39.062,46.387,27.832
1578401580.362,44.434,23.926,35.645,41.504,23.926
1578401580.366,26.367,20.996,29.785,30.762,48.828
1578401580.370,17.578,22.949,33.203,26.367,67.871
1578401580.374,24.902,28.320,30.762,34.668,4.883
1578401580.378,17.090,20.996,29.297,22.461,53.711
1578401580.382,16.602,20.996,32.227,14.648,112.305
1578401580.386,29.785,25.879,34.668,29.785,29.297
1578401580.390,7.324,24.414,33.691,10.254,40.039
1578401580.394,7.812,20.508,28.809,7.324,77.148
1578401580.398,14.160,22.949,31.738,8.789,69.336
1578401580.402,14.160,28.809,34.180,1.953,4.395
1578401580.405,21.973,35.156,37.598,9.766,-24.902
1578401580.409,7.812,30.762,35.645,11.230,1.465
1578401580.413,3.418,26.367,37.109,15.137,10.742
1578401580.417,14.160,28.320,45.410,19.531,-23.438
1578401580.421,22.949,23.438,37.109,22.461,5.371
1578401580.425,30.762,16.113,29.297,29.297,-24.902
1578401580.429,37.109,19.531,39.551,37.109,-44.434
1578401580.433,31.250,23.926,41.504,35.156,-13.672
1578401580.437,28.809,23.926,44.922,28.809,-17.578
1578401580.441,39.062,23.926,42.969,27.832,-31.738
1578401580.444,47.852,29.297,41.016,41.016,2.930
1578401580.448,41.016,29.785,41.504,43.945,66.406
1578401580.452,32.227,27.832,41.992,41.016,70.801
1578401580.456,32.715,28.320,42.969,41.992,105.957
1578401580.460,41.016,26.367,38.086,39.551,74.707
1578401580.464,48.828,30.762,37.598,44.434,23.926
1578401580.468,37.598,22.461,36.133,40.039,45.410
1578401580.472,31.738,7.324,39.062,38.086,53.223
1578401580.476,30.273,15.137,43.945,38.086,39.551
1578401580.480,28.809,25.391,41.992,38.086,17.578
1578401580.484,36.133,26.367,49.805,45.898,8.789
1578401580.487,34.180,24.414,54.199,45.898,61.523
1578401580.491,33.691,27.344,42.969,40.527,63.965
1578401580.495,34.668,22.949,32.715,32.715,30.273
1578401580.499,36.133,19.531,28.809,28.809,0.488
1578401580.503,45.898,24.902,36.133,34.668,47.852
1578401580.507,51.270,23.438,46.875,43.457,85.449
1578401580.511,41.016,24.414,46.387,49.805,32.227
1578401580.515,32.227,22.949,43.457,46.875,60.059
1578401580.519,38.086,23.926,41.992,39.062,73.730
1578401580.523,47.852,26.367,41.016,39.062,55.664
1578401580.527,52.246,35.645,43.457,46.875,64.941
1578401580.530,40.527,36.621,39.551,39.551,95.215
1578401580.534,30.762,25.391,35.156,36.621,77.148
1578401580.538,35.645,23.926,35.156,34.668,82.520
1578401580.542,42.969,32.227,43.945,35.645,113.281
1578401580.546,44.922,35.156,56.641,49.316,49.805
1578401580.550,37.109,27.832,51.270,45.410,-11.719
1578401580.554,33.691,27.344,47.852,39.062,-51.270
1578401580.558,42.480,34.180,52.246,44.434,-55.664
1578401580.562,47.363,30.762,43.945,39.062,0.977
1578401580.566,45.898,30.762,38.086,34.668,43.945
1578401580.569,44.922,38.086,46.387,44.434,70.312
1578401580.573,40.039,32.715,44.922,50.293,55.664
1578401580.577,40.527,33.691,47.852,49.316,-20.020
1578401580.581,40.527,37.109,59.082,42.480,-18.066
1578401580.585,30.273,39.062,59.082,33.203,38.574
1578401580.589,23.438,38.574,51.758,34.668,-6.348
1578401580.593,24.414,28.809,46.387,37.109,-2.441
1578401580.597,24.414,25.391,47.363,27.344,39.551
1578401580.601,33.203,30.762,49.805,25.879,60.547
1578401580.605,45.898,34.180,50.781,36.133,44.922
1578401580.609,41.504,26.855,46.875,38.574,14.648
1578401580.612,35.645,28.320,43.945,38.574,19.043
1578401580.616,36.133,29.297,48.340,32.715,32.715
1578401580.620,43.457,31.738,53.711,29.297,50.781
1578401580.624,51.758,45.898,52.246,39.062,29.785
1578401580.628,43.945,42.480,48.828,42.480,43.457
1578401580.632,32.715,37.598,51.758,38.086,51.758
1578401580.636,36.133,43.945,48.828,40.527,62.012
1578401580.640,49.316,46.387,50.293,45.898,63.965
1578401580.644,51.758,43.457,62.500,49.316,21.973
1578401580.648,46.875,41.016,70.801,53.711,-2.441
1578401580.652,39.551,35.645,67.871,55.176,0.000
1578401580.655,31.738,30.762,56.152,45.898,41.992
1578401580.659,35.645,39.062,51.270,35.645,19.043
1578401580.663,41.016,43.457,54.199,36.621,-7.324
1578401580.667,43.457,40.039,58.105,42.969,6.836
1578401580.671,41.504,41.016,61.523,41.992,40.039
1578401580.675,35.156,45.410,61.035,32.715,76.660
1578401580.679,36.133,47.852,55.176,23.926,37.598
1578401580.683,40.527,43.945,47.852,26.367,32.227
1578401580.687,40.039,35.645,54.199,36.133,3.906
1578401580.691,28.809,27.344,53.223,34.668,-31.250
1578401580.694,20.020,30.273,48.828,32.227,13.184
1578401580.698,26.855,32.715,54.688,33.691,40.527
1578401580.702,39.062,39.062,56.641,35.156,32.227
1578401580.706,39.551,41.992,53.711,32.227,61.523
1578401580.710,34.180,33.203,52.246,30.273,47.852
1578401580.714,33.691,39.551,58.594,31.738,28.809
1578401580.718,37.109,41.992,59.570,26.855,34.180
1578401580.722,42.480,41.016,50.293,27.832,4.395
1578401580.726,41.016,44.922,42.480,31.738,6.348
1578401580.730,34.668,36.133,40.527,30.273,39.551
1578401580.734,26.855,35.156,41.992,20.996,40.039
1578401580.737,30.273,40.039,53.711,21.484,7.812
1578401580.741,41.992,42.480,56.152,28.809,7.324
1578401580.745,43.945,37.598,44.922,28.320,11.719
1578401580.749,39.551,39.062,48.828,31.738,19.043
1578401580.753,34.668,42.480,45.898,28.809,44.922
1578401580.757,41.016,43.457,43.457,29.785,43.457
1578401580.761,44.922,43.945,48.340,33.203,3.418
1578401580.765,36.621,34.668,44.922,28.809,43.457
1578401580.769,29.785,31.738,50.293,35.645,77.637
1578401580.773,26.855,35.156,64.453,40.039,105.957
1578401580.777,25.391,39.062,56.641,28.809,104.004
1578401580.780,38.574,41.504,54.688,29.785,46.875
1578401580.784,44.434,39.062,51.270,35.156,71.777
1578401580.788,40.039,40.527,46.387,36.621,47.852
1578401580.792,38.574,42.480,54.199,38.086,29.785
1578401580.796,34.668,40.039,51.270,32.227,45.410
1578401580.800,41.016,43.945,53.223,34.180,33.203
1578401580.804,47.363,41.504,46.875,35.156,27.832
1578401580.808,54.688,35.156,39.062,51.758,2.441
1578401580.812,52.246,38.574,45.410,59.570,-5.859
1578401580.816,21.973,48.340,47.852,25.391,2.441
1578401580.819,20.020,43.945,52.246,17.090,-21.484
1578401580.823,41.016,37.598,60.059,35.156,21.973
1578401580.827,36.621,33.691,56.641,41.016,77.148
1578401580.831,37.109,36.133,51.270,49.316,36.133
1578401580.835,35.645,38.574,50.781,40.039,30.762
1578401580.839,42.480,39.551,56.152,38.086,43.457
1578401580.843,42.969,41.504,50.781,37.109,41.504
1578401580.847,36.133,38.574,42.480,32.227,66.895
1578401580.851,42.480,33.691,42.969,39.062,89.355
1578401580.855,37.109,34.668,42.480,38.574,90.332
1578401580.859,37.109,39.062,43.945,36.621,49.805
1578401580.862,48.340,40.039,49.805,43.457,33.203
1578401580.866,47.363,41.504,57.129,47.363,92.285
1578401580.870,38.574,45.898,56.641,40.527,97.168
1578401580.874,37.109,48.340,60.059,44.922,73.242
1578401580.878,33.691,41.992,58.105,38.574,45.898
1578401580.882,32.227,41.016,46.387,27.344,6.836
1578401580.886,39.551,46.387,41.992,34.668,64.941
1578401580.890,37.598,45.410,47.852,41.992,89.844
1578401580.894,31.250,45.898,52.246,40.039,34.668
1578401580.898,32.715,51.758,58.105,31.250,36.621
1578401580.902,36.621,48.340,59.082,28.320,16.113
1578401580.905,41.016,40.039,54.688,34.668,-4.395
1578401580.909,31.738,39.551,52.246,36.621,46.875
1578401580.913,25.391,41.016,45.898,32.715,10.254
1578401580.917,30.273,45.898,47.852,28.809,4.883
1578401580.921,37.598,46.387,53.223,32.715,36.133
1578401580.925,44.434,40.039,59.570,37.109,20.508
1578401580.929,38.086,46.875,57.617,35.645,58.594
1578401580.933,29.297,48.828,52.734,33.691,120.605
1578401580.937,30.762,43.457,54.199,32.227,65.430
1578401580.941,33.203,49.805,55.176,28.320,14.648
1578401580.944,32.715,49.805,53.223,26.855,25.879
1578401580.948,30.762,43.945,54.199,30.273,59.082
1578401580.952,28.320,44.922,57.617,34.668,43.457
1578401580.956,28.809,47.363,58.594,30.273,42.480
1578401580.960,31.250,49.805,61.035,25.391,54.199
1578401580.964,39.062,48.340,58.594,30.273,46.387
1578401580.968,38.086,47.363,54.688,38.574,24.414
1578401580.972,27.832,40.527,52.246,28.809,6.348
1578401580.976,29.297,40.039,53.223,20.996,26.855
1578401580.980,36.621,48.340,56.152,19.531,-5.371
1578401580.984,44.434,44.922,55.664,21.484,-22.461
1578401580.987,41.504,47.852,55.664,26.855,6.836
1578401580.991,28.320,49.316,51.758,28.320,15.625
1578401580.995,24.902,42.969,48.340,27.832,-13.184
1578401580.999,27.344,44.922,47.852,24.902,30.762
1578401581.003,30.762,44.922,50.781,23.438,95.703
