timestamps,TP9,AF7,AF8,TP10,Right AUX
1578401991.745,80.566,41.992,33.203,56.152,16.602
1578401991.749,76.660,52.246,47.363,62.500,27.344
1578401991.753,66.406,45.410,33.203,66.895,3.906
1578401991.757,73.730,44.922,15.137,70.312,-0.488
1578401991.761,74.219,56.152,27.344,63.965,31.250
1578401991.765,72.266,65.918,61.523,61.035,19.531
1578401991.769,78.125,70.801,75.684,70.312,13.184
1578401991.773,67.871,49.805,62.012,60.547,65.430
1578401991.777,55.176,45.410,44.434,41.504,70.801
1578401991.780,48.828,57.129,38.086,23.438,42.480
1578401991.784,35.645,37.598,27.344,5.859,47.852
1578401991.788,38.086,34.668,33.691,14.160,77.637
1578401991.792,35.156,52.246,32.715,20.020,37.598
1578401991.796,17.578,34.180,17.578,2.441,42.969
1578401991.800,12.695,27.832,38.574,-7.812,33.203
1578401991.804,22.949,46.387,62.988,4.883,-9.277
1578401991.808,25.879,43.457,61.035,20.996,6.836
1578401991.812,21.484,41.016,53.711,32.227,-11.230
1578401991.816,24.902,40.039,52.734,42.480,-15.625
1578401991.820,8.789,27.344,36.621,27.832,-17.578
1578401991.823,4.395,19.531,21.973,13.184,-4.395
1578401991.827,40.527,37.598,30.273,45.898,19.043
1578401991.831,48.340,45.898,45.410,66.895,42.969
1578401991.835,34.180,29.297,51.270,48.828,39.062
1578401991.839,30.273,10.254,50.781,32.227,41.016
1578401991.843,57.129,20.020,49.316,60.059,21.484
1578401991.847,94.727,70.801,61.523,90.820,1.465
1578401991.851,42.969,57.129,31.250,36.621,27.832
1578401991.855,2.930,19.043,12.207,0.977,48.340
1578401991.859,18.555,22.949,42.480,4.883,92.285
1578401991.862,21.484,31.738,52.734,-2.441,69.336
1578401991.866,17.090,33.691,40.039,-3.906,10.254
1578401991.870,15.137,41.016,44.922,12.207,-9.277
1578401991.874,5.859,39.062,43.457,14.648,24.414
1578401991.878,15.137,36.621,24.902,13.184,46.875
1578401991.882,44.434,53.223,52.734,36.133,25.879
1578401991.886,29.297,33.691,60.059,34.668,56.641
1578401991.890,-6.348,8.789,28.320,0.977,72.266
1578401991.894,-7.324,19.531,42.480,-0.977,70.312
1578401991.898,-0.977,9.277,58.594,13.672,51.270
1578401991.902,6.348,-0.977,41.016,21.973,27.344
1578401991.905,22.461,23.926,28.809,29.297,-36.621
1578401991.909,20.996,26.367,35.156,29.785,-18.555
1578401991.913,13.672,19.531,47.852,30.762,60.547
1578401991.917,20.508,30.762,52.246,32.715,42.480
1578401991.921,18.555,25.879,28.320,18.066,43.457
1578401991.925,1.953,21.973,14.648,8.301,21.973
1578401991.929,-2.441,17.578,30.762,16.602,-11.719
1578401991.933,5.371,22.949,57.617,25.391,18.066
1578401991.937,1.953,19.043,55.176,4.883,42.480
1578401991.941,7.324,12.695,32.715,5.371,14.648
1578401991.945,19.531,28.809,21.484,22.949,-5.859
1578401991.948,28.809,41.992,47.363,23.438,12.695
1578401991.952,20.020,30.273,55.664,15.625,60.547
1578401991.956,9.766,22.461,43.457,9.766,83.984
1578401991.960,20.020,26.367,54.688,12.695,100.098
1578401991.964,20.508,20.020,33.203,4.395,82.520
1578401991.968,17.090,15.625,12.207,7.324,33.203
1578401991.972,35.645,13.184,34.668,32.227,39.551
1578401991.976,54.199,33.691,46.387,47.852,47.363
1578401991.980,63.477,59.570,41.992,48.828,2.441
1578401991.984,72.754,45.410,52.246,51.270,-30.273
1578401991.987,67.871,38.574,51.270,51.758,2.930
1578401991.991,38.086,29.785,22.461,32.715,69.336
1578401991.995,26.855,16.602,11.230,31.250,66.406
1578401991.999,43.945,21.484,22.461,29.297,27.832
1578401992.003,68.359,44.922,28.809,39.551,97.168
1578401992.007,75.684,56.152,46.875,60.547,93.262
1578401992.011,63.477,47.852,60.547,45.410,48.828
1578401992.015,39.551,36.133,42.480,19.531,59.082
1578401992.019,31.250,46.875,32.715,21.484,35.645
1578401992.023,45.410,53.223,36.133,26.855,15.137
1578401992.027,49.805,45.898,21.484,30.273,25.879
1578401992.030,36.621,35.156,27.344,28.809,32.227
1578401992.034,28.320,25.879,33.203,30.273,8.789
1578401992.038,25.391,26.367,32.227,28.809,-2.441
1578401992.042,34.180,23.438,65.430,35.156,-10.254
1578401992.046,36.133,10.742,76.172,38.086,-39.062
1578401992.050,28.809,6.348,42.969,44.434,-13.184
1578401992.054,29.785,21.484,40.527,62.988,2.441
1578401992.058,2.441,27.344,48.340,24.414,-45.410
1578401992.062,5.859,35.156,46.387,15.137,-13.184
1578401992.066,20.508,39.062,53.223,33.691,83.496
1578401992.070,-4.395,29.785,45.898,11.230,72.266
1578401992.073,-9.766,30.762,51.758,6.348,44.922
1578401992.077,-4.883,36.133,56.152,10.742,28.809
1578401992.081,-29.785,28.320,30.273,-20.508,47.852
1578401992.085,-26.855,24.414,11.719,-29.297,7.324
1578401992.089,-8.789,44.922,40.527,-8.789,22.461
1578401992.093,-8.301,62.012,60.059,-16.602,105.469
1578401992.097,-16.602,49.316,49.316,-33.203,42.969
1578401992.101,-38.574,30.762,32.227,-65.430,-9.277
1578401992.105,-24.414,38.574,21.484,-57.129,27.344
1578401992.109,-3.906,55.664,30.762,-20.508,8.789
1578401992.112,0.977,39.551,44.922,-17.090,4.883
1578401992.116,-0.488,23.438,45.898,-20.508,67.871
1578401992.120,-2.930,28.320,38.574,-20.996,49.316
1578401992.124,27.344,62.012,57.617,16.602,53.711
1578401992.128,39.062,59.570,72.266,41.016,11.719
1578401992.132,4.395,15.625,42.969,7.324,-9.277
1578401992.136,-9.277,16.113,26.855,-9.277,74.219
1578401992.140,-2.930,30.273,23.926,0.977,96.680
1578401992.144,10.254,26.367,20.020,15.137,42.480
1578401992.148,19.531,28.809,26.855,22.949,11.719
1578401992.152,19.531,44.922,53.223,39.551,18.555
1578401992.155,32.715,56.641,68.359,55.176,46.875
1578401992.159,42.480,45.410,50.781,47.363,43.457
1578401992.163,22.949,27.832,26.367,29.785,55.176
1578401992.167,22.949,34.668,20.020,36.621,21.973
1578401992.171,32.715,28.320,11.230,47.363,-4.883
1578401992.175,37.598,21.973,21.973,53.711,25.879
1578401992.179,41.016,31.738,43.945,44.922,12.207
1578401992.183,38.574,34.180,38.086,36.133,14.648
1578401992.187,63.965,44.434,31.250,61.523,13.672
1578401992.191,89.844,56.152,59.082,86.914,18.555
1578401992.195,64.941,41.016,54.688,67.871,60.059
1578401992.198,35.645,29.785,26.855,34.668,75.684
1578401992.202,28.809,22.461,31.250,20.508,20.508
1578401992.206,19.043,-2.930,37.598,14.648,28.809
1578401992.210,24.902,0.977,26.855,24.902,15.625
1578401992.214,31.738,35.156,30.762,35.645,25.391
1578401992.218,31.738,40.527,45.410,33.691,57.129
1578401992.222,33.691,39.062,45.898,24.414,55.176
1578401992.226,41.992,49.805,53.711,41.016,53.711
1578401992.230,50.781,44.922,39.062,60.059,31.250
1578401992.234,35.156,27.832,35.645,47.852,17.578
1578401992.237,14.160,25.391,44.434,26.855,10.742
1578401992.241,9.766,17.578,28.320,18.066,-7.812
1578401992.245,5.371,11.719,31.738,12.695,-38.574
1578401992.249,3.418,29.297,37.598,18.555,-28.809
1578401992.253,11.230,32.227,38.574,32.715,5.859
1578401992.257,17.090,31.738,19.531,34.668,25.391
1578401992.261,46.875,43.945,11.230,42.969,59.082
1578401992.265,68.848,43.457,48.828,64.941,73.242
1578401992.269,38.086,33.691,62.988,54.688,-9.277
1578401992.273,12.207,26.367,39.551,34.668,1.953
1578401992.277,1.953,27.344,37.109,13.184,99.121
1578401992.280,0.488,39.551,35.156,2.930,62.988
1578401992.284,15.137,41.504,39.062,13.184,-21.484
1578401992.288,24.902,49.805,52.246,23.926,-18.066
1578401992.292,46.387,63.965,61.523,57.617,2.930
1578401992.296,33.691,46.875,47.363,44.922,21.973
1578401992.300,8.301,31.250,31.250,14.160,6.348
1578401992.304,30.273,35.156,44.434,35.645,-66.895
1578401992.308,42.480,22.949,41.504,48.340,-17.090
1578401992.312,26.367,21.484,35.645,28.809,75.684
1578401992.316,32.227,41.992,30.273,41.504,53.223
1578401992.320,22.461,27.832,17.090,27.832,54.688
1578401992.323,33.691,38.086,36.133,20.996,34.668
1578401992.327,55.664,63.965,65.430,41.504,22.461
1578401992.331,33.203,49.316,49.316,32.227,106.445
1578401992.335,29.785,51.758,45.898,34.180,104.492
1578401992.339,51.758,55.176,42.480,39.551,60.547
1578401992.343,48.828,37.109,36.621,24.414,24.902
1578401992.347,38.086,35.156,49.316,25.879,33.691
1578401992.351,39.062,28.320,26.367,40.527,96.680
1578401992.355,44.434,20.996,16.113,46.387,78.125
1578401992.359,41.016,29.785,36.133,25.879,64.453
1578401992.362,21.484,33.691,35.645,-0.977,46.875
1578401992.366,22.949,33.691,38.574,12.695,22.461
1578401992.370,40.039,27.344,43.945,40.527,20.020
1578401992.374,52.246,38.574,44.434,56.641,38.086
1578401992.378,51.270,52.246,50.293,51.758,65.430
1578401992.382,48.828,44.922,45.898,43.945,10.742
1578401992.386,63.477,39.062,33.203,47.363,-42.969
1578401992.390,41.992,29.297,22.949,33.691,-21.484
1578401992.394,16.113,23.926,31.738,21.484,25.879
1578401992.398,30.273,41.504,40.039,32.715,64.941
1578401992.402,42.480,48.340,38.086,38.086,81.055
1578401992.405,36.621,42.969,51.270,32.715,70.312
1578401992.409,40.527,40.527,45.898,47.363,50.293
1578401992.413,62.988,50.293,48.828,78.613,41.504
1578401992.417,47.363,46.875,59.570,70.801,41.504
1578401992.421,7.812,9.277,38.574,20.996,58.594
1578401992.425,1.953,11.230,27.832,10.254,39.062
1578401992.429,6.348,36.621,32.715,20.508,23.438
1578401992.433,11.230,33.203,37.109,33.203,77.637
1578401992.437,18.555,24.414,38.086,34.668,105.957
1578401992.441,20.508,34.668,54.199,23.926,75.195
1578401992.445,32.715,44.922,54.688,29.785,10.254
1578401992.448,42.969,37.109,47.363,48.828,-12.207
1578401992.452,46.875,38.574,56.641,71.289,36.133
1578401992.456,47.363,29.297,52.734,67.383,53.223
1578401992.460,50.293,24.902,43.945,54.199,69.336
1578401992.464,53.223,43.457,53.711,58.594,77.148
1578401992.468,47.852,45.410,60.547,55.664,66.895
1578401992.472,40.039,17.578,42.969,50.293,79.590
1578401992.476,41.016,27.344,41.504,50.293,33.203
1578401992.480,48.340,50.293,30.273,41.016,54.688
1578401992.484,53.711,53.223,39.551,41.992,74.707
1578401992.487,56.152,49.316,62.012,51.758,17.578
1578401992.491,51.270,27.344,44.922,41.016,-19.531
1578401992.495,44.434,32.715,34.668,29.785,31.738
1578401992.499,43.457,40.527,45.410,39.062,7.812
1578401992.503,53.711,39.551,42.969,41.992,-34.668
1578401992.507,47.852,43.457,35.156,25.879,-20.020
1578401992.511,41.504,45.898,42.480,29.297,0.977
1578401992.515,41.992,37.598,36.621,31.738,52.246
1578401992.519,53.223,38.574,38.086,43.457,61.523
1578401992.523,54.688,39.551,38.574,40.039,81.055
1578401992.527,56.152,42.969,54.688,42.480,48.340
1578401992.530,41.992,34.668,53.711,43.457,-15.625
1578401992.534,22.949,28.809,29.297,33.691,7.812
1578401992.538,27.344,40.039,39.062,37.598,43.457
1578401992.542,21.484,24.902,38.574,23.926,48.828
1578401992.546,29.785,27.344,36.133,28.809,4.883
1578401992.550,42.480,50.781,44.434,48.828,-41.016
1578401992.554,30.762,44.434,47.363,46.387,11.719
1578401992.558,20.020,29.785,30.273,20.508,55.176
1578401992.562,26.367,30.762,23.926,14.648,37.598
1578401992.566,31.738,31.250,27.832,21.484,31.738
1578401992.570,33.691,38.574,36.621,31.738,47.852
1578401992.573,37.109,44.922,41.992,50.293,55.664
1578401992.577,46.875,38.086,41.504,47.852,2.930
1578401992.581,51.270,37.598,47.363,36.621,-28.320
1578401992.585,45.410,42.480,35.156,31.250,-44.434
1578401992.589,52.246,47.852,34.668,39.062,-2.441
1578401992.593,46.875,51.758,36.133,41.504,102.051
1578401992.597,34.180,49.316,27.832,27.832,94.727
1578401992.601,31.250,48.340,39.551,24.902,66.406
1578401992.605,47.363,51.270,46.387,42.480,61.523
1578401992.609,49.316,53.711,34.180,48.340,-10.254
1578401992.612,50.781,52.734,41.992,57.129,45.410
1578401992.616,56.152,56.152,45.898,66.895,113.770
1578401992.620,34.180,59.082,32.715,41.016,71.777
1578401992.624,21.973,57.129,31.250,19.531,-5.371
1578401992.628,17.090,58.105,33.203,16.602,-0.488
1578401992.632,4.395,56.641,37.109,12.207,33.691
1578401992.636,2.930,62.500,52.246,11.719,64.453
1578401992.640,-7.324,73.730,67.871,-8.301,68.848
1578401992.644,-6.836,68.848,67.383,-16.602,68.359
1578401992.648,-5.371,70.312,54.199,-27.832,71.777
1578401992.652,-18.066,75.684,60.059,-32.715,38.574
1578401992.655,-25.391,79.590,69.824,-36.621,42.969
1578401992.659,-30.762,87.402,70.801,-53.223,41.992
1578401992.663,-22.461,87.891,60.059,-47.363,-9.766
1578401992.667,-17.090,83.984,55.176,-46.875,13.672
1578401992.671,-23.926,84.961,59.570,-46.875,16.113
1578401992.675,-30.762,87.891,56.641,-40.039,-3.906
1578401992.679,-35.156,82.031,52.246,-46.387,50.781
1578401992.683,-7.812,87.891,58.594,-32.227,45.410
1578401992.687,0.000,81.543,60.059,-19.043,32.715
1578401992.691,-7.812,62.012,47.852,-10.742,45.898
1578401992.695,-1.953,49.805,44.922,2.930,49.316
1578401992.698,6.348,41.992,35.645,12.207,11.230
1578401992.702,24.902,27.344,35.156,26.855,3.418
1578401992.706,49.805,17.578,44.922,50.293,69.336
1578401992.710,63.477,20.020,39.062,72.266,71.289
1578401992.714,76.172,12.207,34.180,83.984,59.570
1578401992.718,89.355,7.324,32.715,88.379,46.387
1578401992.722,87.402,7.324,31.738,88.379,12.695
1578401992.726,92.285,4.883,29.297,86.914,21.973
1578401992.730,105.957,5.371,29.785,93.262,29.785
1578401992.734,117.676,-3.906,20.508,107.422,47.363
1578401992.737,115.723,2.930,11.230,111.816,8.301
1578401992.741,111.816,16.602,18.555,105.957,-15.625
1578401992.745,116.211,14.648,19.531,107.910,1.465
1578401992.749,113.770,12.207,15.137,113.281,13.672
1578401992.753,111.328,19.043,19.043,120.117,-5.859
1578401992.757,121.094,24.414,12.207,126.465,-2.930
1578401992.761,125.000,14.160,8.789,116.699,60.059
1578401992.765,127.930,11.719,9.277,101.074,39.551
1578401992.769,128.418,22.949,12.695,110.352,22.461
1578401992.773,114.746,21.973,18.555,111.816,12.695
1578401992.777,102.539,16.113,14.160,102.051,23.438
1578401992.780,103.027,21.484,15.625,98.633,51.270
1578401992.784,98.633,23.926,18.555,89.355,-18.066
1578401992.788,86.914,18.555,12.695,83.008,13.672
1578401992.792,82.031,12.207,17.578,94.727,97.168
1578401992.796,80.566,11.719,22.461,106.934,58.105
1578401992.800,77.637,10.254,26.855,104.004,40.039
1578401992.804,80.078,3.418,36.133,100.586,55.176
1578401992.808,82.520,9.277,33.203,99.121,13.672
1578401992.812,83.008,21.484,40.039,103.027,8.789
1578401992.816,83.984,24.414,56.641,108.398,8.301
1578401992.820,80.566,19.531,53.711,96.191,0.488
1578401992.823,72.754,12.207,35.645,69.824,22.949
1578401992.827,70.801,19.043,29.785,65.918,-1.465
1578401992.831,82.031,40.527,42.480,88.867,-0.977
1578401992.835,83.984,44.434,39.062,91.797,50.781
1578401992.839,68.848,27.832,29.785,71.777,76.660
1578401992.843,54.688,16.113,28.320,50.293,18.555
1578401992.847,51.758,17.090,18.555,39.551,-20.020
1578401992.851,56.152,16.602,21.973,46.875,11.230
1578401992.855,62.500,19.531,41.016,67.871,82.031
1578401992.859,62.500,28.320,39.551,77.637,83.984
1578401992.862,60.059,25.879,35.645,68.359,28.320
1578401992.866,55.176,21.973,37.598,57.617,41.016
1578401992.870,35.645,19.531,22.949,54.199,41.992
1578401992.874,40.527,24.902,20.020,62.500,59.082
1578401992.878,52.734,30.762,31.738,62.012,64.941
1578401992.882,42.969,25.879,36.621,47.852,15.137
1578401992.886,41.992,32.227,39.062,50.781,-41.992
1578401992.890,49.805,38.574,47.363,60.059,19.531
1578401992.894,44.434,33.203,45.410,51.758,56.152
1578401992.898,45.898,27.832,43.945,47.363,37.109
1578401992.902,45.898,23.926,39.062,39.551,44.434
1578401992.905,37.109,14.160,26.855,26.367,40.039
1578401992.909,41.992,20.020,30.273,34.668,25.391
1578401992.913,42.969,33.203,27.344,42.969,24.414
1578401992.917,38.086,29.297,21.973,37.109,76.660
1578401992.921,49.316,36.621,40.039,41.016,56.641
1578401992.925,61.035,42.480,54.199,51.758,34.180
1578401992.929,56.152,23.438,49.805,52.246,1.953
1578401992.933,56.152,20.020,29.297,53.711,-8.789
1578401992.937,62.988,33.691,28.320,57.617,43.457
1578401992.941,66.406,54.688,41.992,47.363,22.949
1578401992.945,65.918,59.570,33.203,40.039,-0.488
1578401992.948,64.453,41.992,23.926,51.270,41.504
1578401992.952,70.801,36.621,27.832,63.477,90.332
1578401992.956,73.242,44.922,30.273,73.730,103.027
1578401992.960,70.801,49.805,33.203,71.777,31.250
1578401992.964,71.777,46.387,38.574,63.965,37.109
1578401992.968,78.613,47.363,45.410,75.195,93.750
1578401992.972,68.359,42.969,37.598,77.148,34.668
1578401992.976,59.570,37.598,39.551,72.266,27.832
1578401992.980,59.570,41.504,42.969,66.895,34.180
1578401992.984,60.059,44.434,25.391,59.082,-23.926
1578401992.987,51.758,30.762,41.504,52.734,-9.277
1578401992.991,35.645,19.043,60.059,57.617,47.852
1578401992.995,22.949,24.414,47.852,57.129,67.871
1578401992.999,12.207,29.785,35.156,38.574,89.355
1578401993.003,11.230,31.250,21.973,24.902,24.414
1578401993.007,13.672,26.855,13.184,26.367,-16.602
1578401993.011,18.555,37.109,29.785,31.250,-4.883
1578401993.015,24.414,40.527,36.621,31.738,3.906
1578401993.019,30.273,26.855,36.133,35.645,-4.395
1578401993.023,35.156,21.484,42.969,25.879,-20.996
1578401993.027,36.621,24.902,25.879,19.043,-42.969
1578401993.030,45.898,27.344,26.855,32.227,11.230
1578401993.034,54.199,25.879,37.109,43.457,58.594
1578401993.038,59.082,24.414,24.902,49.805,47.363
1578401993.042,68.359,24.902,22.949,53.711,37.598
1578401993.046,76.172,38.574,21.484,49.316,25.391
1578401993.050,82.031,52.734,20.020,61.523,49.316
1578401993.054,63.477,31.738,37.598,75.195,60.547
1578401993.058,45.898,19.043,51.270,66.406,43.457
1578401993.062,44.922,27.344,56.641,56.641,65.430
1578401993.066,29.785,26.855,59.082,44.922,29.785
1578401993.070,18.066,18.555,63.965,41.016,-44.434
1578401993.073,20.996,16.113,66.406,47.363,-27.344
1578401993.077,11.230,16.602,66.406,48.340,13.184
1578401993.081,-0.488,13.184,66.895,35.645,23.926
1578401993.085,10.254,23.438,62.012,31.250,30.273
1578401993.089,23.926,46.875,70.801,37.598,95.215
1578401993.093,13.184,41.504,69.336,31.250,107.910
1578401993.097,3.906,23.438,47.363,23.438,95.215
1578401993.101,15.137,28.809,29.297,16.113,102.051
1578401993.105,32.227,34.180,23.926,17.090,27.344
1578401993.109,39.062,30.762,24.414,19.531,4.883
1578401993.112,44.434,38.086,24.902,36.133,3.906
1578401993.116,53.711,45.410,26.367,61.523,45.410
1578401993.120,56.641,28.320,37.109,59.570,68.848
1578401993.124,55.176,12.207,43.457,51.758,86.914
1578401993.128,55.176,34.668,36.133,52.734,75.195
1578401993.132,47.852,49.805,41.992,51.758,38.574
1578401993.136,42.480,40.039,54.199,49.316,14.160
1578401993.140,33.203,33.691,49.805,35.156,13.672
1578401993.144,27.344,19.531,39.062,25.391,46.387
1578401993.148,32.715,22.949,40.039,34.180,44.922
1578401993.152,22.949,18.555,38.086,44.922,25.391
1578401993.155,23.926,15.137,35.645,54.688,51.758
1578401993.159,30.762,33.691,21.484,50.781,80.566
1578401993.163,21.484,20.996,20.996,34.668,55.664
1578401993.167,25.391,13.184,48.828,41.504,29.785
1578401993.171,20.996,18.066,48.828,39.062,35.156
1578401993.175,20.996,26.367,61.035,54.688,60.059
1578401993.179,36.621,26.855,68.359,72.754,65.918
1578401993.183,38.574,18.555,43.945,57.617,36.621
1578401993.187,26.367,33.691,48.340,51.270,-14.648
1578401993.191,21.484,31.250,64.941,54.688,-15.137
1578401993.195,33.203,31.738,75.195,62.988,22.949
1578401993.198,56.152,53.711,82.031,79.102,27.832
1578401993.202,57.129,50.781,54.199,70.312,20.020
1578401993.206,40.039,29.785,37.598,40.527,15.625
1578401993.210,38.086,19.043,55.176,25.391,41.504
1578401993.214,29.785,13.672,61.523,24.414,38.086
1578401993.218,26.855,10.742,50.781,23.438,7.324
1578401993.222,34.668,20.996,51.270,13.184,-13.672
1578401993.226,44.922,28.320,57.129,21.484,-8.789
1578401993.230,52.734,22.461,45.410,35.156,4.883
1578401993.234,56.152,28.320,41.992,48.828,56.152
1578401993.237,57.617,48.828,53.223,46.387,117.676
1578401993.241,54.688,58.594,56.641,32.715,38.574
1578401993.245,60.059,60.547,44.434,36.133,27.832
1578401993.249,60.059,56.152,40.527,43.457,21.484
1578401993.253,56.152,51.270,49.316,48.340,3.906
1578401993.257,56.641,47.852,65.918,44.434,22.461
1578401993.261,56.152,37.109,70.801,41.016,17.578
1578401993.265,60.547,34.668,67.871,41.016,8.301
1578401993.269,58.594,33.203,58.105,39.062,15.137
1578401993.273,55.664,37.598,43.457,41.016,34.180
1578401993.277,53.711,43.457,36.621,44.922,12.695
1578401993.280,43.457,24.902,27.344,39.062,2.441
1578401993.284,42.480,26.367,37.109,27.832,59.570
1578401993.288,44.922,35.645,56.641,27.344,41.992
1578401993.292,40.039,38.086,59.570,40.039,2.930
1578401993.296,41.504,38.086,48.340,48.828,36.621
1578401993.300,52.246,39.551,46.387,41.992,36.133
1578401993.304,43.945,32.715,48.340,28.320,13.184
1578401993.308,32.715,23.438,44.922,26.367,14.160
1578401993.312,38.574,32.227,42.969,40.039,43.945
1578401993.316,35.156,27.832,30.762,44.434,60.547
1578401993.320,26.367,34.180,28.809,36.621,82.520
1578401993.323,25.879,30.762,41.992,33.203,58.594
1578401993.327,25.391,19.531,56.152,35.645,26.855
1578401993.331,19.531,19.531,44.434,30.273,40.527
1578401993.335,28.809,34.668,41.992,47.852,21.973
1578401993.339,22.949,45.410,42.480,42.969,54.688
1578401993.343,9.277,24.414,32.715,10.742,11.230
1578401993.347,15.625,21.973,50.293,17.578,6.836
1578401993.351,17.090,30.762,51.758,22.949,82.031
1578401993.355,22.461,35.645,35.645,30.273,80.078
1578401993.359,29.785,37.109,19.043,32.227,88.867
1578401993.362,34.668,30.273,30.273,29.297,99.609
1578401993.366,32.715,27.344,57.617,32.227,32.715
1578401993.370,26.367,32.715,50.293,28.809,-6.348
1578401993.374,27.344,38.574,44.434,31.738,29.297
1578401993.378,24.902,43.457,41.992,29.785,20.020
1578401993.382,26.367,42.480,36.621,24.414,43.457
1578401993.386,36.133,34.180,47.852,28.809,3.418
1578401993.390,20.996,29.785,47.363,28.320,-18.066
1578401993.394,23.438,32.715,28.320,34.180,61.035
1578401993.398,32.227,29.297,28.809,39.062,80.566
1578401993.402,20.996,12.207,23.926,28.809,47.363
1578401993.405,30.762,19.043,37.598,32.715,23.926
1578401993.409,36.621,25.391,52.734,44.434,-10.254
1578401993.413,29.785,22.949,34.180,38.574,17.090
1578401993.417,54.688,57.617,42.969,62.012,69.336
1578401993.421,62.500,54.688,27.832,61.035,50.293
1578401993.425,45.410,22.461,19.531,27.832,62.012
1578401993.429,47.363,28.809,39.062,28.320,68.848
1578401993.433,50.781,35.156,22.461,35.156,73.730
1578401993.437,52.246,38.086,18.066,32.715,60.059
1578401993.441,57.129,51.758,29.297,32.227,28.809
1578401993.445,69.824,45.898,42.969,34.668,61.523
1578401993.448,70.801,46.387,40.527,38.574,42.480
1578401993.452,65.430,51.758,34.668,51.270,35.156
1578401993.456,83.496,44.434,44.434,79.102,11.719
1578401993.460,72.266,42.480,45.410,61.035,26.367
1578401993.464,11.230,37.109,41.504,-8.301,53.711
1578401993.468,-9.766,39.551,34.180,-33.691,44.434
1578401993.472,-2.930,48.340,33.203,-23.926,102.051
1578401993.476,-14.160,57.617,55.664,-29.297,111.816
1578401993.480,-41.992,64.941,63.965,-57.129,80.566
1578401993.484,-68.359,49.316,57.129,-85.938,43.945
1578401993.487,-79.102,53.711,68.359,-102.051,35.156
1578401993.491,-91.309,68.848,76.172,-101.562,27.344
1578401993.495,-111.816,72.754,76.660,-107.910,23.438
1578401993.499,-130.371,74.219,83.008,-133.301,20.996
1578401993.503,-151.367,58.105,81.055,-153.809,-33.691
1578401993.507,-159.180,62.500,74.707,-165.527,-27.344
1578401993.511,-164.062,74.707,76.172,-168.945,-29.297
1578401993.515,-172.852,81.543,80.566,-165.039,-10.742
1578401993.519,-172.852,85.449,83.984,-166.016,76.660
1578401993.523,-169.922,96.191,76.660,-171.387,77.637
1578401993.527,-170.410,95.215,73.730,-175.781,9.277
1578401993.530,-161.621,89.355,73.730,-165.039,33.203
1578401993.534,-126.465,93.750,78.125,-121.582,34.180
1578401993.538,-122.070,69.824,71.777,-123.047,51.270
1578401993.542,-121.582,65.430,45.898,-137.207,83.984
1578401993.546,-85.938,82.031,46.387,-107.910,24.414
1578401993.550,-74.707,70.801,39.551,-94.238,-10.254
1578401993.554,-69.824,55.176,28.809,-83.984,16.602
1578401993.558,-53.711,52.734,31.738,-73.242,80.566
1578401993.562,-41.016,48.828,16.113,-65.430,94.727
1578401993.566,-16.602,47.852,9.277,-42.969,54.688
1578401993.570,10.742,41.992,21.484,-13.672,22.461
1578401993.573,12.695,22.461,20.996,2.930,37.109
1578401993.577,18.555,23.438,13.184,15.137,53.711
1578401993.581,47.852,36.621,17.578,31.738,62.500
1578401993.585,71.777,43.457,27.832,46.875,41.992
1578401993.589,71.289,35.645,28.809,57.617,-10.254
1578401993.593,61.523,22.949,12.207,62.500,-5.371
1578401993.597,65.430,33.203,8.789,70.801,19.043
1578401993.601,78.613,38.086,15.625,74.219,10.742
1578401993.605,67.871,18.555,1.953,60.059,-46.387
1578401993.609,62.500,2.930,2.930,63.477,-64.941
1578401993.612,72.266,11.230,19.043,80.078,33.203
1578401993.616,74.219,29.297,25.391,88.379,98.633
1578401993.620,69.336,26.855,21.973,81.055,73.242
1578401993.624,81.055,37.109,21.484,81.055,-4.395
1578401993.628,88.379,37.109,20.508,86.914,5.859
1578401993.632,72.266,21.973,17.578,79.102,85.449
1578401993.636,66.406,12.207,-0.977,69.824,103.027
1578401993.640,76.172,13.184,-15.625,77.148,33.203
1578401993.644,83.496,23.926,7.812,72.266,-0.977
1578401993.648,85.449,26.855,27.832,70.312,31.250
1578401993.652,81.055,14.160,27.344,73.730,56.152
1578401993.655,77.148,16.113,19.531,71.777,102.051
1578401993.659,81.055,36.621,30.273,77.637,46.387
1578401993.663,87.402,40.039,36.133,78.613,-16.602
1578401993.667,90.332,37.598,31.250,78.613,-21.973
1578401993.671,77.637,35.156,24.902,73.242,-9.277
1578401993.675,61.035,18.066,6.836,66.406,17.090
1578401993.679,63.477,12.207,7.324,65.918,81.543
1578401993.683,83.496,31.738,29.785,80.566,63.965
1578401993.687,92.773,24.414,29.297,86.914,20.020
1578401993.691,85.938,20.020,18.066,71.777,28.320
1578401993.695,82.520,30.273,30.273,73.730,44.922
1578401993.698,68.848,24.414,9.277,68.359,45.410
1578401993.702,66.895,29.785,-4.883,65.430,64.453
1578401993.706,74.219,38.574,20.996,68.359,60.547
1578401993.710,78.613,49.805,44.922,70.801,41.016
1578401993.714,78.613,40.527,39.551,69.336,94.727
1578401993.718,66.406,24.902,26.367,57.617,72.754
1578401993.722,56.641,24.414,16.113,49.805,49.316
1578401993.726,62.500,31.738,13.184,46.875,84.961
1578401993.730,67.871,39.551,31.738,51.270,55.176
1578401993.734,64.453,41.504,33.203,54.688,25.879
1578401993.737,69.824,40.527,42.969,63.965,74.707
1578401993.741,71.777,32.715,32.715,59.082,68.359
1578401993.745,73.242,37.598,20.020,55.176,63.477
1578401993.749,78.125,41.504,39.062,59.570,26.367
1578401993.753,73.730,36.621,36.621,57.617,-4.883
1578401993.757,56.152,37.109,18.066,49.316,15.137
1578401993.761,53.711,24.414,25.391,43.945,44.434
1578401993.765,54.199,20.508,34.668,28.809,44.922
1578401993.769,49.316,36.133,30.273,26.855,-5.371
1578401993.773,55.176,47.363,35.156,47.852,19.043
1578401993.777,55.176,47.363,26.367,51.758,64.453
1578401993.780,54.688,36.133,28.809,46.875,51.270
1578401993.784,53.711,36.621,41.992,43.945,39.062
1578401993.788,53.223,47.852,41.992,45.410,-7.324
1578401993.792,44.922,39.551,38.574,44.922,-21.484
1578401993.796,35.645,29.785,40.039,40.039,-20.508
1578401993.800,43.457,39.062,50.293,50.293,4.395
1578401993.804,38.086,36.133,32.715,41.992,17.090
1578401993.808,29.785,20.996,20.508,28.320,-14.160
1578401993.812,44.922,31.738,40.527,45.410,-9.277
1578401993.816,52.734,45.898,54.688,50.781,20.508
1578401993.820,54.688,53.711,49.316,51.758,61.523
1578401993.823,50.293,39.551,38.574,49.805,-2.930
1578401993.827,41.992,12.695,27.832,36.133,-36.621
1578401993.831,60.547,46.387,44.922,50.293,79.590
1578401993.835,51.758,48.340,51.758,48.828,120.605
1578401993.839,23.438,15.137,32.227,18.066,84.961
1578401993.843,26.367,28.320,26.855,14.648,-4.395
1578401993.847,37.598,35.156,22.949,20.508,-39.062
1578401993.851,55.664,45.410,37.109,42.969,-18.555
1578401993.855,51.270,40.527,45.898,63.477,1.465
1578401993.859,54.688,25.391,40.527,64.941,57.617
1578401993.862,52.246,24.902,28.809,45.898,55.176
1578401993.866,17.578,21.973,13.184,4.395,7.324
1578401993.870,8.789,33.203,23.438,1.953,-8.301
1578401993.874,37.109,46.387,39.062,38.574,36.133
1578401993.878,37.109,46.387,36.133,39.062,92.773
1578401993.882,33.203,35.645,28.809,30.273,83.496
1578401993.886,35.156,37.598,21.973,13.184,42.480
1578401993.890,41.992,55.176,28.809,20.020,6.348
1578401993.894,49.805,56.641,32.227,39.551,31.250
1578401993.898,44.434,45.410,39.551,36.133,59.082
1578401993.902,42.969,45.898,44.922,32.227,48.828
1578401993.905,26.367,28.809,18.066,9.277,45.410
1578401993.909,18.066,20.508,6.348,9.766,20.996
1578401993.913,22.949,33.691,9.277,27.832,-1.953
1578401993.917,34.180,27.832,25.879,38.086,25.879
1578401993.921,44.434,32.715,48.340,42.480,54.688
1578401993.925,46.387,33.203,44.922,38.086,64.941
1578401993.929,42.969,35.645,40.527,33.691,85.449
1578401993.933,29.297,39.551,32.715,21.484,48.340
1578401993.937,36.621,40.039,39.551,34.668,17.090
1578401993.941,42.969,37.109,46.875,41.016,15.625
1578401993.945,27.832,31.738,27.832,21.973,-18.066
1578401993.948,32.715,42.969,28.809,23.438,15.625
1578401993.952,41.016,25.391,39.551,29.297,60.547
1578401993.956,57.617,27.344,41.992,46.875,51.270
1578401993.960,52.246,48.340,31.738,34.180,40.039
1578401993.964,33.691,26.367,19.531,10.742,-16.113
1578401993.968,30.273,15.137,31.250,10.254,-41.016
1578401993.972,38.086,35.156,45.898,20.996,-9.766
1578401993.976,50.781,55.664,45.898,40.039,24.902
1578401993.980,46.387,49.316,42.969,41.504,62.012
1578401993.984,62.012,49.316,43.457,46.387,53.223
1578401993.987,57.617,37.598,27.832,33.691,46.387
1578401993.991,42.480,27.832,12.695,32.227,26.367
1578401993.995,48.828,52.246,25.879,43.457,19.043
1578401993.999,54.199,49.805,49.316,47.363,5.371
1578401994.003,48.828,32.715,50.781,36.621,0.000
1578401994.007,41.016,24.414,37.598,24.902,-32.227
1578401994.011,47.852,41.016,46.875,41.016,-20.020
1578401994.015,63.477,65.430,66.406,67.383,13.184
1578401994.019,51.758,55.176,46.875,51.270,55.664
1578401994.023,29.785,26.855,15.137,16.602,65.430
1578401994.027,25.879,28.809,0.977,20.020,32.227
1578401994.030,35.645,42.480,21.973,39.062,32.715
1578401994.034,51.270,42.480,57.129,54.688,32.715
1578401994.038,38.086,23.926,47.363,46.875,71.777
1578401994.042,26.855,9.766,36.133,34.180,90.820
1578401994.046,43.945,41.016,53.711,44.922,64.941
1578401994.050,42.480,53.711,47.363,43.457,32.715
1578401994.054,26.367,38.574,32.227,33.691,20.508
1578401994.058,36.133,46.387,32.227,48.340,43.457
1578401994.062,46.387,52.734,33.691,53.711,35.645
1578401994.066,37.109,36.133,44.434,31.250,-3.906
1578401994.070,49.805,34.668,61.523,42.480,-43.945
1578401994.073,61.523,46.387,62.012,59.570,43.457
1578401994.077,41.504,43.945,52.246,44.434,70.801
1578401994.081,39.062,37.598,45.410,39.551,67.383
1578401994.085,57.617,41.016,41.016,44.434,68.359
1578401994.089,63.477,37.109,36.133,51.270,4.883
1578401994.093,34.180,23.438,18.555,29.785,-6.836
1578401994.097,16.602,31.250,19.531,25.391,33.203
1578401994.101,19.531,36.133,32.715,32.715,-0.977
1578401994.105,33.203,36.621,51.758,32.227,-40.039
1578401994.109,59.082,53.711,62.012,50.293,-24.414
1578401994.112,56.152,53.711,52.246,55.176,-21.973
1578401994.116,35.645,35.645,28.809,42.480,7.324
1578401994.120,42.969,30.762,16.113,44.434,65.918
1578401994.124,55.176,25.391,31.738,51.758,50.293
1578401994.128,40.039,40.527,54.688,37.109,28.320
1578401994.132,11.230,43.945,50.293,16.113,27.344
1578401994.136,5.859,36.133,51.270,19.531,55.176
1578401994.140,16.602,38.086,53.711,31.738,70.312
1578401994.144,12.695,29.785,42.969,19.531,-14.648
1578401994.148,9.277,26.855,41.504,10.742,12.207
1578401994.152,26.367,42.480,48.828,29.297,91.797
1578401994.155,35.645,42.480,50.781,48.340,73.730
1578401994.159,15.625,23.438,44.434,33.691,60.059
1578401994.163,7.812,25.391,39.551,25.391,63.477
1578401994.167,19.531,34.180,40.039,35.645,60.547
1578401994.171,11.230,22.461,31.250,27.344,30.762
1578401994.175,1.465,23.926,23.438,28.809,54.199
1578401994.179,9.277,35.645,41.016,42.969,84.961
1578401994.183,17.578,39.551,49.805,36.621,104.492
1578401994.187,23.438,43.457,50.781,35.645,68.359
1578401994.191,26.855,43.945,53.711,40.527,16.602
1578401994.195,36.621,39.062,58.594,57.617,36.133
1578401994.198,23.926,23.926,54.688,47.852,46.875
1578401994.202,12.207,18.555,34.668,22.461,47.852
1578401994.206,25.879,31.738,38.574,31.738,-15.137
1578401994.210,27.344,32.227,47.363,33.203,-0.977
1578401994.214,27.344,24.902,35.645,35.645,72.266
1578401994.218,34.180,31.738,34.668,49.316,60.547
1578401994.222,39.551,40.527,35.645,48.828,20.508
1578401994.226,41.504,38.086,33.691,41.016,-43.457
1578401994.230,47.852,53.711,60.547,51.758,-37.109
1578401994.234,50.781,60.547,72.754,59.570,10.742
1578401994.237,36.133,30.273,40.527,43.457,45.410
1578401994.241,43.945,32.715,44.434,41.016,27.344
1578401994.245,47.363,35.645,56.152,37.109,5.859
1578401994.249,34.668,31.738,32.227,27.344,12.695
1578401994.253,31.250,39.062,29.297,39.551,31.738
1578401994.257,44.434,32.227,40.039,61.523,40.527
1578401994.261,54.199,37.598,40.039,63.477,77.637
1578401994.265,32.715,48.828,33.203,22.461,109.375
1578401994.269,24.414,43.945,28.320,5.371,16.113
1578401994.273,36.133,39.551,36.133,28.809,-28.320
1578401994.277,36.133,35.645,41.016,41.992,-10.254
1578401994.280,39.062,39.551,27.832,36.621,-13.672
1578401994.284,44.922,37.598,23.438,34.180,43.945
1578401994.288,57.617,36.133,23.926,41.016,62.500
1578401994.292,68.359,33.203,30.762,56.641,8.789
1578401994.296,72.266,36.621,34.180,70.312,19.531
1578401994.300,80.566,42.969,22.461,71.289,48.340
1578401994.304,81.055,29.785,22.949,69.336,79.590
1578401994.308,81.055,27.344,26.367,74.219,38.574
1578401994.312,83.008,27.344,26.367,79.590,-6.836
1578401994.316,88.867,27.832,27.344,82.031,34.180
1578401994.320,99.121,32.715,22.461,89.844,28.320
1578401994.323,97.168,32.715,20.508,80.078,11.230
1578401994.327,102.539,32.715,25.391,84.473,13.672
1578401994.331,112.305,39.062,27.832,101.074,35.645
1578401994.335,105.469,43.457,37.598,100.098,76.660
1578401994.339,100.586,37.109,40.039,101.074,20.020
1578401994.343,105.469,32.715,30.273,97.168,51.758
1578401994.347,104.004,34.668,26.855,88.379,95.703
1578401994.351,92.773,35.156,21.973,76.660,48.828
1578401994.355,85.449,33.691,23.926,71.289,11.230
1578401994.359,80.078,24.414,20.508,79.102,-20.020
1578401994.362,88.867,33.203,27.832,82.520,46.387
1578401994.366,91.309,43.457,41.016,75.195,92.285
1578401994.370,77.637,37.598,39.062,68.848,82.031
1578401994.374,70.801,35.645,37.598,72.266,41.504
1578401994.378,81.543,40.039,39.062,83.008,38.574
1578401994.382,81.055,34.180,35.645,75.684,44.922
1578401994.386,67.871,30.762,24.414,59.570,33.203
1578401994.390,66.895,37.109,17.578,56.641,31.250
1578401994.394,59.082,22.461,17.090,54.199,1.953
1578401994.398,62.012,14.648,26.855,58.594,-2.930
1578401994.402,64.941,26.855,34.668,59.082,21.484
1578401994.405,66.406,34.180,30.762,61.523,-1.465
1578401994.409,66.406,37.109,34.180,61.035,-16.602
1578401994.413,65.430,35.645,46.875,69.336,28.320
1578401994.417,69.336,23.926,51.270,82.520,28.320
1578401994.421,66.895,32.715,42.480,77.148,25.391
1578401994.425,76.660,47.852,33.691,69.824,60.547
1578401994.429,73.730,35.645,26.367,57.617,37.109
1578401994.433,69.336,22.461,25.879,64.941,-23.926
1578401994.437,60.547,22.949,27.832,67.383,25.879
1578401994.441,53.711,31.250,23.926,53.711,43.457
1578401994.445,61.523,37.109,31.250,46.875,11.230
1578401994.448,60.059,40.039,38.086,53.711,57.617
1578401994.452,57.617,39.551,41.016,62.988,63.965
1578401994.456,54.199,32.227,42.480,63.965,17.578
1578401994.460,43.945,27.832,32.227,57.617,70.312
1578401994.464,35.645,31.250,26.367,37.109,84.473
1578401994.468,36.133,33.691,24.902,24.414,41.992
1578401994.472,43.945,41.016,32.715,43.457,2.441
1578401994.476,47.363,34.180,36.133,60.547,20.020
1578401994.480,52.246,21.484,21.973,58.594,26.855
1578401994.484,55.664,30.762,30.273,49.316,47.852
1578401994.487,47.852,35.645,31.250,34.180,53.223
1578401994.491,52.246,48.828,39.551,44.922,-6.348
1578401994.495,46.875,41.504,41.992,48.828,23.438
1578401994.499,38.574,21.484,24.902,39.551,34.180
1578401994.503,39.551,30.273,27.832,31.738,34.668
1578401994.507,42.969,35.645,27.832,35.645,1.465
1578401994.511,71.777,50.781,42.480,60.547,-7.324
1578401994.515,79.590,53.711,62.500,65.918,54.199
1578401994.519,44.434,32.227,45.898,41.016,47.852
1578401994.523,42.969,22.949,37.109,35.156,28.809
1578401994.527,46.875,14.648,38.086,33.203,-4.395
1578401994.530,39.551,11.719,36.133,25.879,-2.930
1578401994.534,39.551,24.414,27.832,35.156,60.059
1578401994.538,39.062,34.668,33.203,48.828,84.473
1578401994.542,42.969,25.879,49.805,44.434,32.715
1578401994.546,44.434,24.902,39.062,37.598,-43.457
1578401994.550,56.152,48.340,42.480,50.293,-9.766
1578401994.554,67.383,49.316,65.430,66.406,64.453
1578401994.558,45.410,30.762,37.598,52.734,49.805
1578401994.562,24.902,38.086,14.160,23.926,44.434
1578401994.566,27.832,39.062,26.855,24.902,41.504
1578401994.570,36.133,39.062,44.922,41.016,20.996
1578401994.573,51.758,53.223,56.152,55.176,33.691
1578401994.577,42.480,42.480,38.574,54.688,21.484
1578401994.581,20.508,24.414,15.625,28.809,28.809
1578401994.585,32.227,20.508,24.414,27.832,18.555
1578401994.589,35.645,26.855,39.551,32.227,-12.695
1578401994.593,23.926,36.621,41.992,30.762,-2.441
1578401994.597,19.043,33.203,39.062,25.391,3.418
1578401994.601,38.086,36.133,47.852,42.969,6.836
1578401994.605,59.082,49.805,56.152,63.965,13.672
1578401994.609,31.738,52.246,53.223,27.832,49.805
1578401994.612,-0.488,50.781,51.758,-6.348,38.086
1578401994.616,-12.695,43.457,59.570,-13.672,-1.953
1578401994.620,-26.367,47.852,72.754,-19.531,20.508
1578401994.624,-40.039,75.684,88.379,-39.551,83.008
1578401994.628,-73.242,94.238,90.332,-75.195,64.453
1578401994.632,-109.375,89.844,80.566,-109.375,49.316
1578401994.636,-133.301,91.797,84.961,-125.977,80.566
1578401994.640,-145.020,110.352,87.402,-137.695,71.289
1578401994.644,-157.715,121.094,84.473,-162.598,33.691
1578401994.648,-185.059,98.633,87.891,-189.941,9.277
1578401994.652,-208.496,86.426,95.703,-206.543,32.715
1578401994.655,-203.125,93.262,103.516,-199.219,44.434
1578401994.659,-167.969,92.773,110.352,-164.551,64.941
1578401994.663,-153.320,105.957,106.934,-159.180,42.969
1578401994.667,-140.137,103.027,98.633,-151.855,40.527
1578401994.671,-127.441,94.238,92.773,-137.695,53.223
1578401994.675,-133.789,89.355,83.984,-134.277,52.246
1578401994.679,-89.355,83.984,68.359,-84.961,110.840
1578401994.683,-88.867,81.055,49.316,-103.516,90.332
1578401994.687,-109.863,51.270,54.688,-126.465,49.805
1578401994.691,-76.172,40.527,51.270,-83.496,64.941
1578401994.695,-72.754,36.133,47.363,-70.801,68.359
1578401994.698,-64.941,22.461,41.016,-58.594,101.074
1578401994.702,-35.156,24.414,35.645,-32.715,119.141
1578401994.706,-17.578,32.227,34.668,-20.020,96.680
1578401994.710,0.977,36.133,29.785,-7.324,57.129
1578401994.714,5.371,29.297,19.043,1.465,37.598
1578401994.718,4.395,17.578,2.930,8.301,1.465
1578401994.722,11.230,2.441,18.066,21.484,-12.695
1578401994.726,18.066,-5.371,17.090,15.137,14.160
1578401994.730,40.039,1.953,7.812,26.855,39.551
1578401994.734,59.082,1.953,9.766,61.523,52.734
1578401994.737,75.684,8.789,17.090,81.543,68.848
1578401994.741,83.496,27.344,24.902,89.355,64.941
1578401994.745,79.590,25.879,18.555,82.520,26.367
1578401994.749,81.055,20.020,4.395,73.242,13.672
1578401994.753,84.473,14.648,-8.301,76.660,9.766
1578401994.757,75.195,0.000,1.465,83.496,9.766
1578401994.761,80.566,6.348,16.113,92.773,14.648
1578401994.765,103.027,22.949,16.602,96.191,53.223
1578401994.769,95.215,25.879,12.207,80.566,69.824
1578401994.773,89.844,28.809,12.695,79.102,54.688
1578401994.777,108.398,36.621,28.809,115.234,62.988
1578401994.780,114.746,41.504,39.551,124.023,31.738
1578401994.784,97.168,29.297,20.996,86.914,3.906
1578401994.788,74.219,16.113,-5.859,60.547,-42.480
1578401994.792,60.547,12.207,1.465,62.012,-87.402
1578401994.796,68.848,20.508,29.297,76.172,5.859
1578401994.800,103.027,33.691,34.180,100.586,58.594
1578401994.804,109.863,40.039,35.645,100.586,20.996
1578401994.808,84.473,33.203,22.461,67.383,33.691
1578401994.812,71.289,20.508,17.578,62.988,34.668
1578401994.816,80.566,30.762,19.043,77.148,62.988
1578401994.820,79.590,29.297,4.395,76.172,32.227
1578401994.823,71.289,21.484,16.602,67.871,-27.344
1578401994.827,74.707,23.926,30.762,65.918,-11.719
1578401994.831,71.777,29.785,27.832,67.383,33.203
1578401994.835,89.844,38.574,35.645,89.355,101.074
1578401994.839,122.559,51.270,45.898,127.441,79.102
1578401994.843,113.281,50.781,39.062,113.281,1.465
1578401994.847,83.496,36.133,26.855,68.848,-8.789
1578401994.851,74.707,33.203,25.879,63.965,-19.531
1578401994.855,76.172,37.109,16.602,78.125,6.836
1578401994.859,52.734,21.484,8.301,60.059,7.324
1578401994.862,56.641,15.137,41.016,52.246,29.297
1578401994.866,76.660,34.668,54.688,67.871,65.430
1578401994.870,69.824,36.621,26.855,60.059,21.484
1578401994.874,79.590,50.293,43.457,73.730,44.434
1578401994.878,66.895,45.898,39.062,73.730,61.035
1578401994.882,45.410,24.902,12.695,51.758,79.590
1578401994.886,62.988,33.203,32.715,59.082,82.031
1578401994.890,67.383,34.668,38.086,57.129,40.527
1578401994.894,55.664,27.344,36.621,44.922,80.566
1578401994.898,58.594,30.762,36.621,53.711,120.605
1578401994.902,69.336,36.621,34.180,68.359,95.215
1578401994.905,65.430,31.738,44.922,59.570,16.113
1578401994.909,50.293,21.973,29.785,34.668,-21.973
1578401994.913,50.781,34.180,23.438,41.016,48.828
1578401994.917,49.316,36.133,27.832,58.594,11.719
1578401994.921,45.410,37.109,30.273,48.828,35.645
1578401994.925,72.754,37.598,63.965,57.617,17.090
1578401994.929,82.520,31.738,72.266,69.824,-28.320
1578401994.933,64.941,46.387,38.086,52.246,14.648
1578401994.937,39.062,36.133,14.160,37.598,5.371
1578401994.941,17.578,16.113,15.625,34.668,49.805
1578401994.945,24.902,20.020,27.344,22.949,121.582
1578401994.948,39.062,34.668,25.391,20.996,38.574
1578401994.952,50.781,45.898,33.203,42.969,-14.160
1578401994.956,62.012,52.246,54.688,62.012,-7.812
1578401994.960,59.082,46.875,55.664,65.430,20.020
1578401994.964,60.059,37.598,61.035,53.223,78.613
1578401994.968,54.199,41.016,62.012,44.434,96.680
1578401994.972,48.828,47.852,37.109,45.898,100.098
1578401994.976,52.734,41.992,25.391,46.387,90.820
1578401994.980,47.852,43.457,43.945,41.016,91.797
1578401994.984,33.203,30.273,34.180,22.949,47.363
1578401994.987,35.645,21.973,23.438,15.625,-7.812
1578401994.991,51.758,42.969,43.945,35.645,-12.695
1578401994.995,59.082,54.199,47.363,49.805,5.859
1578401994.999,47.363,39.551,38.086,47.852,42.480
1578401995.003,38.574,35.156,33.203,42.480,24.902
1578401995.007,52.246,53.711,49.805,45.410,-40.039
1578401995.011,48.828,43.457,50.293,38.574,-2.930
1578401995.015,43.457,27.832,36.621,38.574,21.484
1578401995.019,41.992,38.086,33.203,43.945,27.832
1578401995.023,35.645,30.273,24.902,32.227,41.016
1578401995.027,42.969,36.133,37.109,39.062,23.926
1578401995.030,37.598,48.828,38.086,34.668,-5.859
1578401995.034,28.809,42.480,29.785,30.273,23.926
1578401995.038,29.297,48.340,49.316,40.039,64.453
1578401995.042,21.973,41.504,36.621,31.250,31.250
1578401995.046,41.992,41.504,39.062,35.645,65.918
1578401995.050,64.453,36.133,54.199,41.504,44.434
1578401995.054,43.945,26.367,34.180,26.855,5.371
1578401995.058,36.621,41.504,26.367,31.250,62.500
1578401995.062,45.898,42.480,29.297,39.062,58.105
1578401995.066,45.898,29.785,41.504,40.527,27.832
1578401995.070,41.992,36.133,54.688,38.574,32.715
1578401995.073,29.785,45.410,43.457,24.902,18.066
1578401995.077,33.691,51.758,40.039,39.551,16.113
1578401995.081,35.645,45.898,37.598,46.387,34.668
1578401995.085,23.926,31.250,35.156,32.227,83.008
1578401995.089,27.344,33.203,28.809,30.273,49.316
1578401995.093,55.664,47.852,42.969,52.734,-0.977
1578401995.097,45.410,43.457,42.969,51.270,10.742
1578401995.101,9.277,27.344,12.695,22.461,54.688
1578401995.105,19.043,32.227,24.902,28.809,47.363
1578401995.109,39.551,41.016,42.480,41.016,38.086
1578401995.112,31.250,33.691,43.457,37.109,42.480
1578401995.116,26.855,36.621,52.246,39.551,18.066
1578401995.120,24.902,29.785,45.898,37.598,20.996
1578401995.124,29.297,32.227,39.551,39.062,32.227
1578401995.128,44.434,49.805,39.551,44.922,52.246
1578401995.132,54.199,55.664,38.086,58.594,37.598
1578401995.136,51.758,58.105,41.992,65.918,59.082
1578401995.140,23.926,29.785,26.855,36.133,64.453
1578401995.144,24.414,18.066,13.672,20.508,42.969
1578401995.148,45.410,41.504,44.922,25.391,-4.883
1578401995.152,49.805,48.340,56.641,29.297,-7.812
1578401995.155,39.062,27.832,30.762,34.668,-15.625
1578401995.159,32.227,22.949,27.832,32.227,-18.066
1578401995.163,42.969,39.551,42.480,37.109,16.113
1578401995.167,56.152,48.340,32.715,45.410,61.523
1578401995.171,62.012,41.504,30.762,51.758,54.199
1578401995.175,65.918,49.316,56.152,67.383,12.695
1578401995.179,71.289,49.316,62.012,76.660,6.836
1578401995.183,61.523,40.039,56.641,62.012,13.672
1578401995.187,41.016,34.180,30.762,29.297,6.348
1578401995.191,31.738,27.832,15.625,20.996,-4.395
1578401995.195,42.480,34.668,39.062,39.062,29.297
1578401995.198,34.668,26.367,41.504,35.645,40.039
1578401995.202,19.043,27.344,27.344,20.020,8.789
1578401995.206,25.391,36.133,32.715,26.367,2.930
1578401995.210,38.086,42.480,41.504,43.457,8.301
1578401995.214,52.734,50.781,51.758,68.848,10.742
1578401995.218,63.965,56.641,42.969,85.938,77.148
1578401995.222,38.086,43.945,17.578,46.875,89.844
1578401995.226,14.648,24.414,19.043,10.742,11.230
1578401995.230,20.508,24.414,31.250,16.602,6.836
1578401995.234,25.879,30.273,32.227,30.762,78.125
1578401995.237,32.715,40.039,40.039,37.109,61.523
1578401995.241,53.711,62.500,58.105,56.641,18.555
1578401995.245,41.016,53.223,48.828,44.922,20.996
1578401995.249,14.648,32.227,24.414,14.648,17.578
1578401995.253,25.879,39.062,15.625,21.973,-21.484
1578401995.257,46.387,45.410,24.414,46.387,-3.418
1578401995.261,42.480,33.691,22.461,50.781,27.344
1578401995.265,34.668,27.832,23.438,40.039,-7.812
1578401995.269,38.574,41.016,27.832,37.109,0.000
1578401995.273,45.898,56.152,43.945,46.875,33.691
1578401995.277,40.039,43.945,49.316,49.805,52.734
1578401995.280,33.203,25.879,31.738,32.227,41.992
1578401995.284,34.668,34.180,37.598,25.879,51.758
1578401995.288,28.320,38.086,45.898,27.344,32.227
1578401995.292,46.875,50.293,48.828,40.527,-0.488
1578401995.296,46.387,47.852,41.016,36.133,33.203
1578401995.300,30.762,26.855,28.809,20.996,43.457
1578401995.304,45.410,32.715,37.109,34.668,33.203
1578401995.308,45.410,31.738,47.363,29.785,54.199
1578401995.312,21.973,12.695,28.809,13.672,38.086
1578401995.316,28.809,23.438,31.738,31.738,39.551
1578401995.320,47.363,42.969,58.105,54.199,18.555
1578401995.323,42.480,44.922,56.152,50.293,13.184
1578401995.327,29.785,30.762,34.180,27.832,47.852
1578401995.331,31.250,27.344,22.461,20.508,-0.488
1578401995.335,44.434,40.527,36.133,44.922,-34.180
1578401995.339,49.805,37.598,45.410,51.758,36.133
1578401995.343,42.969,23.438,34.180,29.785,56.641
1578401995.347,40.527,24.414,26.855,18.555,40.039
1578401995.351,42.480,34.668,20.508,20.020,28.320
1578401995.355,57.129,53.223,43.945,43.945,33.691
1578401995.359,46.875,41.992,49.805,45.410,80.566
1578401995.362,46.387,39.062,44.922,45.410,107.422
1578401995.366,56.641,40.039,43.457,52.734,82.520
1578401995.370,61.035,31.738,28.809,54.199,78.125
1578401995.374,52.734,37.109,32.715,52.246,29.297
1578401995.378,27.832,37.598,41.992,29.785,-11.719
1578401995.382,29.297,37.598,35.645,31.250,44.922
1578401995.386,50.781,39.062,34.668,44.922,47.363
1578401995.390,54.688,39.062,35.156,35.156,15.625
1578401995.394,47.363,30.273,27.832,40.039,32.227
1578401995.398,44.922,28.809,30.273,58.594,46.387
1578401995.402,42.969,32.227,31.738,50.293,79.102
1578401995.405,54.199,35.156,28.320,47.363,34.668
1578401995.409,58.594,33.691,32.715,56.641,2.930
1578401995.413,64.941,38.086,30.762,64.453,60.547
1578401995.417,74.707,39.551,26.855,77.148,50.293
1578401995.421,73.242,32.715,32.227,82.520,24.902
1578401995.425,83.496,31.250,25.879,81.055,36.621
1578401995.429,83.496,33.203,29.785,80.078,40.527
1578401995.433,75.195,33.203,37.598,80.566,12.207
1578401995.437,79.590,29.297,35.645,84.961,-36.133
1578401995.441,80.078,27.344,34.668,85.938,-13.184
1578401995.445,70.312,26.855,36.621,80.078,51.270
1578401995.448,63.477,25.391,41.504,75.195,39.062
1578401995.452,63.477,28.809,39.062,70.801,-14.648
1578401995.456,61.035,38.574,34.668,74.707,4.395
1578401995.460,57.129,35.645,27.832,76.172,54.199
1578401995.464,63.965,34.180,28.320,72.754,73.242
1578401995.468,70.801,37.598,53.711,70.801,39.551
1578401995.472,64.453,30.273,69.336,67.383,52.734
1578401995.476,58.594,36.621,52.246,59.570,51.270
1578401995.480,49.805,41.016,33.203,59.082,44.922
1578401995.484,41.504,22.949,28.809,54.688,39.062
1578401995.487,38.086,9.766,26.367,41.992,45.898
1578401995.491,38.574,6.348,27.344,39.062,36.133
1578401995.495,51.270,13.184,24.902,53.711,39.062
1578401995.499,57.129,26.855,27.832,62.988,113.281
1578401995.503,71.289,46.875,51.758,73.730,88.867
1578401995.507,83.496,44.922,50.293,73.242,53.711
1578401995.511,78.613,22.461,50.293,61.035,31.250
1578401995.515,74.219,28.809,49.316,69.824,-1.953
1578401995.519,74.707,40.527,32.715,76.172,9.277
1578401995.523,77.637,42.969,47.852,83.496,8.301
1578401995.527,61.035,31.250,35.645,59.082,-6.348
1578401995.530,48.828,36.133,25.391,41.504,6.348
1578401995.534,58.594,43.945,38.086,56.152,14.160
1578401995.538,62.012,33.691,31.738,60.059,44.434
1578401995.542,42.480,28.809,35.156,50.781,33.203
1578401995.546,44.434,23.438,49.805,49.805,15.625
1578401995.550,74.707,39.551,44.922,65.430,75.684
1578401995.554,58.105,46.387,31.738,52.246,69.824
1578401995.558,40.527,34.180,24.902,41.016,29.297
1578401995.562,54.199,39.551,27.344,56.641,28.320
1578401995.566,63.965,46.387,41.504,59.570,61.035
1578401995.570,65.430,51.758,56.152,54.688,35.645
1578401995.573,54.688,46.387,53.223,50.293,-34.668
1578401995.577,32.715,28.809,32.715,42.969,36.621
1578401995.581,31.738,26.855,21.973,38.086,62.988
1578401995.585,47.852,42.969,23.438,41.016,30.273
1578401995.589,53.711,47.363,29.785,45.898,3.906
1578401995.593,49.316,34.180,31.250,47.852,-19.531
1578401995.597,39.551,35.645,36.621,47.363,31.738
1578401995.601,44.922,40.039,36.621,54.688,36.621
1578401995.605,50.781,50.293,47.852,54.688,26.367
1578401995.609,57.129,58.594,66.895,52.734,-16.602
1578401995.612,55.176,57.129,63.965,50.781,-8.301
1578401995.616,41.992,43.945,47.363,49.316,21.484
1578401995.620,33.691,28.809,37.598,49.316,51.758
1578401995.624,30.273,25.879,33.203,41.992,74.219
1578401995.628,37.109,24.902,36.133,40.527,37.598
1578401995.632,45.410,28.809,39.062,49.805,50.781
1578401995.636,48.340,37.598,46.387,56.152,45.898
1578401995.640,53.223,41.016,47.852,61.523,57.617
1578401995.644,75.684,40.527,44.922,69.336,68.359
1578401995.648,78.613,38.086,46.875,65.430,29.785
1578401995.652,60.059,41.504,45.898,47.363,-17.578
1578401995.655,54.688,34.180,37.109,45.898,18.555
1578401995.659,61.035,27.344,37.598,66.406,117.188
1578401995.663,71.777,33.203,38.574,72.754,81.543
1578401995.667,71.289,31.738,40.039,66.406,29.785
1578401995.671,56.152,24.414,39.551,59.570,37.109
1578401995.675,62.012,27.344,32.227,61.523,26.367
1578401995.679,69.336,32.715,33.691,73.242,10.254
1578401995.683,58.594,38.086,38.574,70.801,21.973
1578401995.687,58.594,39.062,40.527,57.617,-1.953
1578401995.691,57.617,35.156,41.992,53.223,-38.086
1578401995.695,59.082,38.574,33.691,53.711,-10.254
1578401995.698,66.406,38.086,28.320,56.641,-14.160
1578401995.702,65.918,33.203,38.574,58.594,48.828
1578401995.706,58.105,27.832,44.922,46.875,48.340
1578401995.710,53.223,35.645,37.598,40.039,3.906
1578401995.714,53.223,45.898,41.504,43.457,38.086
1578401995.718,57.129,42.480,44.434,45.898,49.316
1578401995.722,58.105,41.016,47.852,53.223,18.066
1578401995.726,57.129,41.504,40.527,48.340,32.227
1578401995.730,50.293,34.180,30.762,28.809,18.555
1578401995.734,56.152,38.574,43.945,36.133,17.090
1578401995.737,59.082,46.875,41.016,49.316,42.480
1578401995.741,44.434,35.645,28.320,38.574,15.625
1578401995.745,41.504,33.203,27.344,29.297,-1.465
1578401995.749,41.016,30.273,35.156,30.273,-1.465
1578401995.753,38.574,13.672,33.691,38.086,43.945
1578401995.757,49.805,33.691,31.250,54.199,83.984
1578401995.761,42.480,46.387,26.367,45.410,69.824
1578401995.765,32.227,32.227,24.414,27.832,50.781
1578401995.769,31.738,43.457,39.062,17.090,37.598
1578401995.773,18.555,46.387,50.781,11.230,12.207
1578401995.777,9.277,42.969,40.039,8.301,65.430
1578401995.780,2.930,50.781,36.621,-3.906,150.391
1578401995.784,11.719,44.922,40.039,0.977,94.727
1578401995.788,12.695,43.457,35.645,-11.230,31.738
1578401995.792,-3.906,41.992,35.645,-26.367,19.043
1578401995.796,-7.324,29.785,31.250,-19.531,-0.488
1578401995.800,5.371,33.203,33.203,-1.953,-31.250
1578401995.804,17.578,40.039,33.691,13.672,12.207
1578401995.808,25.391,41.016,31.250,10.254,62.012
1578401995.812,26.855,38.086,36.133,14.160,32.715
1578401995.816,27.344,42.969,38.574,30.762,27.344
1578401995.820,39.062,41.992,28.809,39.551,6.836
1578401995.823,41.992,31.250,31.738,37.109,17.578
1578401995.827,27.344,29.785,41.504,26.855,25.879
1578401995.831,20.996,32.227,32.715,24.414,-13.184
1578401995.835,29.785,43.457,33.203,37.109,25.879
1578401995.839,33.203,43.945,38.574,43.945,24.414
1578401995.843,33.691,41.016,37.109,43.945,-11.230
1578401995.847,48.828,57.129,39.551,50.293,49.316
1578401995.851,48.340,51.270,28.320,43.945,44.434
1578401995.855,26.855,28.320,20.996,35.645,-13.184
1578401995.859,25.391,31.250,22.461,42.969,-0.488
1578401995.862,29.785,32.227,26.855,44.434,30.273
1578401995.866,46.387,32.227,43.945,51.758,40.039
1578401995.870,51.758,39.551,44.434,51.270,39.062
1578401995.874,53.711,45.898,38.086,56.152,54.688
1578401995.878,65.918,49.316,41.992,70.312,82.520
1578401995.882,69.824,54.688,41.504,64.941,8.789
1578401995.886,64.453,52.246,39.062,52.246,5.371
1578401995.890,40.039,37.598,19.043,34.180,73.730
1578401995.894,38.086,36.621,7.324,37.598,21.484
1578401995.898,52.734,45.410,35.156,55.664,-4.395
1578401995.902,36.133,46.387,57.129,47.852,-13.184
1578401995.905,27.832,36.621,47.363,34.180,53.223
1578401995.909,34.668,35.156,45.898,26.855,83.984
1578401995.913,40.039,42.480,55.176,33.203,-2.441
1578401995.917,45.410,40.527,49.805,42.969,-27.832
1578401995.921,42.480,39.551,39.062,41.992,19.531
1578401995.925,45.410,35.645,39.551,41.504,-2.441
1578401995.929,53.711,39.551,40.527,41.016,-36.133
1578401995.933,55.176,54.199,39.551,42.969,-26.367
1578401995.937,48.828,47.363,42.480,51.270,17.578
1578401995.941,40.039,43.945,36.621,47.852,45.410
1578401995.945,52.246,43.945,36.621,42.969,52.734
1578401995.948,61.523,43.945,40.039,51.270,90.820
1578401995.952,49.805,42.969,33.691,45.898,47.852
1578401995.956,36.133,29.785,34.668,37.598,37.598
1578401995.960,32.715,28.320,41.016,43.457,69.336
1578401995.964,36.133,30.273,36.621,43.457,51.270
1578401995.968,50.293,50.293,47.363,47.363,26.367
1578401995.972,51.270,57.617,49.805,47.363,41.504
1578401995.976,30.762,26.855,28.809,40.527,55.664
1578401995.980,25.391,20.508,18.066,44.922,25.879
1578401995.984,36.133,35.156,22.461,45.410,63.477
1578401995.987,51.270,45.898,36.621,48.340,66.406
1578401995.991,56.641,54.199,39.551,50.781,25.879
1578401995.995,55.176,51.270,41.504,52.246,15.137
1578401995.999,47.852,44.922,52.246,53.711,54.199
1578401996.003,38.086,34.668,41.992,44.922,56.152
1578401996.007,40.527,32.715,28.320,33.691,44.434
1578401996.011,40.039,43.457,37.109,26.855,69.824
1578401996.015,31.250,37.598,43.945,24.902,45.898
1578401996.019,30.273,29.785,41.992,34.180,46.387
1578401996.023,30.762,39.551,36.621,34.180,57.129
1578401996.027,37.598,38.574,31.738,28.320,41.504
1578401996.030,48.340,31.250,37.109,33.203,62.500
1578401996.034,54.199,37.109,37.109,44.922,30.273
1578401996.038,65.918,58.594,44.922,68.359,-2.441
1578401996.042,50.293,58.594,38.086,61.035,88.379
1578401996.046,26.855,40.527,25.391,29.297,63.965
1578401996.050,28.320,44.434,44.922,29.297,-28.809
1578401996.054,24.414,43.457,44.922,34.668,7.324
1578401996.058,38.574,41.016,34.668,41.992,13.184
1578401996.062,49.316,36.621,37.109,52.734,9.766
1578401996.066,40.039,27.832,33.691,45.898,39.551
1578401996.070,39.551,28.809,29.785,32.715,72.266
1578401996.073,40.527,36.621,23.926,34.668,13.672
1578401996.077,41.992,41.016,34.180,46.387,8.789
1578401996.081,44.434,43.457,48.340,47.363,66.406
1578401996.085,40.527,35.645,45.898,43.945,68.848
1578401996.089,34.180,24.902,39.062,30.273,87.891
1578401996.093,26.367,30.273,34.668,20.508,76.660
1578401996.097,27.832,39.062,43.457,31.738,38.574
1578401996.101,28.809,39.062,38.086,41.992,20.508
1578401996.105,31.738,38.574,47.852,41.504,-2.930
1578401996.109,24.414,40.039,61.035,25.879,-11.230
1578401996.112,23.438,35.156,47.852,18.555,9.766
1578401996.116,34.668,35.156,35.645,34.668,28.320
1578401996.120,31.250,36.133,45.410,42.480,58.105
1578401996.124,36.621,27.832,41.504,38.574,-9.766
1578401996.128,42.480,22.949,29.297,30.273,-71.289
1578401996.132,28.809,25.879,33.203,19.043,13.184
1578401996.136,32.715,35.645,42.480,29.297,31.250
1578401996.140,39.062,40.039,37.109,37.109,32.715
1578401996.144,44.922,47.852,35.156,38.086,25.879
1578401996.148,54.199,45.410,44.922,41.504,14.648
1578401996.152,43.457,37.109,43.457,30.762,10.742
1578401996.155,33.691,46.387,28.809,35.156,24.414
1578401996.159,29.785,38.574,14.648,41.016,12.695
1578401996.163,24.414,38.574,31.738,41.504,25.391
1578401996.167,39.551,37.598,51.758,42.480,52.246
1578401996.171,50.781,29.785,53.223,38.086,28.320
1578401996.175,48.828,34.180,38.574,40.527,71.289
1578401996.179,52.246,39.062,37.598,47.852,91.797
1578401996.183,53.711,49.805,42.969,48.828,57.617
1578401996.187,54.688,52.246,40.527,49.316,47.363
1578401996.191,46.875,39.551,46.875,35.645,18.555
1578401996.195,32.227,44.922,53.711,26.367,54.688
1578401996.198,30.273,48.828,42.480,32.227,81.543
1578401996.202,33.691,44.434,41.016,38.574,57.129
1578401996.206,32.715,55.176,56.152,38.574,57.129
1578401996.210,20.508,55.664,42.480,15.625,80.078
1578401996.214,21.484,40.527,34.180,12.695,80.566
1578401996.218,28.320,34.180,51.758,32.715,31.738
1578401996.222,3.418,46.875,62.988,13.184,32.227
1578401996.226,-17.578,63.477,63.965,-20.508,29.785
1578401996.230,-28.320,61.035,70.312,-35.645,15.625
1578401996.234,-62.988,58.105,74.707,-63.477,58.105
1578401996.237,-83.496,65.918,80.566,-74.707,99.609
1578401996.241,-100.098,72.754,97.168,-91.309,43.945
1578401996.245,-124.023,87.402,99.121,-119.629,-7.812
1578401996.249,-117.676,92.285,92.285,-117.676,11.230
1578401996.253,-139.160,92.773,113.281,-143.066,-27.344
1578401996.257,-174.316,83.496,123.535,-167.480,-57.617
1578401996.261,-191.895,57.129,114.258,-175.293,35.645
1578401996.265,-180.176,69.824,124.023,-170.898,81.055
1578401996.269,-165.527,75.195,128.906,-167.969,47.363
1578401996.273,-177.734,58.594,123.047,-182.617,12.695
1578401996.277,-163.574,57.617,107.422,-161.133,27.832
1578401996.280,-140.625,70.801,95.215,-131.836,42.480
1578401996.284,-137.207,76.660,92.285,-124.512,78.613
1578401996.288,-114.258,72.754,84.473,-104.004,103.516
1578401996.292,-97.656,73.730,86.426,-96.191,-3.418
1578401996.296,-84.961,63.477,81.543,-83.496,-38.574
1578401996.300,-85.938,40.039,62.012,-77.637,-27.344
1578401996.304,-96.680,28.320,40.039,-95.215,27.832
1578401996.308,-62.012,38.086,29.297,-75.195,71.289
1578401996.312,-38.574,44.434,25.391,-58.105,65.430
1578401996.316,-19.531,33.691,31.738,-38.086,67.871
1578401996.320,0.488,31.738,25.879,-6.836,81.543
1578401996.323,9.277,46.387,28.320,8.301,65.918
1578401996.327,26.367,45.410,25.391,18.555,4.883
1578401996.331,46.875,43.457,13.672,34.668,28.809
1578401996.335,50.293,30.273,1.465,39.062,64.941
1578401996.339,55.664,24.414,-4.883,56.152,52.246
1578401996.343,73.730,32.715,6.348,81.055,34.668
1578401996.347,74.707,19.043,14.648,73.730,44.434
1578401996.351,67.383,10.742,3.418,57.129,33.691
1578401996.355,68.359,17.578,-0.977,58.594,39.062
1578401996.359,68.848,17.578,13.672,73.242,44.922
1578401996.362,70.801,21.973,9.766,73.730,29.297
1578401996.366,76.172,18.066,8.789,69.824,8.301
1578401996.370,87.402,20.508,14.160,70.801,-16.113
1578401996.374,89.355,27.344,6.348,77.637,-55.176
1578401996.378,84.473,18.555,5.859,87.402,-14.648
1578401996.382,84.473,16.113,0.000,87.402,14.160
1578401996.386,84.473,5.371,-0.977,80.078,-26.855
1578401996.390,84.961,7.324,12.695,71.777,-13.184
1578401996.394,89.355,20.020,25.391,82.520,-13.672
1578401996.398,81.055,6.836,33.203,86.914,-11.719
1578401996.402,71.777,8.789,26.855,78.125,21.973
1578401996.405,71.777,22.461,23.438,69.336,21.973
1578401996.409,73.730,20.020,18.066,64.453,53.223
1578401996.413,81.055,27.832,4.883,73.242,42.969
1578401996.417,79.590,31.738,-2.930,83.496,41.016
1578401996.421,83.008,28.809,10.254,91.309,74.707
1578401996.425,77.637,20.508,20.020,86.426,78.613
1578401996.429,72.266,10.742,20.020,75.684,58.105
1578401996.433,86.914,23.438,32.715,83.496,28.320
1578401996.437,89.844,34.180,43.457,103.516,26.855
1578401996.441,76.172,34.668,15.137,103.516,25.391
1578401996.445,88.867,49.805,6.836,102.539,76.660
1578401996.448,88.379,46.875,18.066,91.797,84.473
1578401996.452,60.059,14.160,16.602,57.129,75.195
1578401996.456,53.223,14.160,25.391,54.688,108.887
1578401996.460,73.242,41.992,30.762,79.102,56.152
1578401996.464,78.125,28.809,20.020,75.684,43.457
1578401996.468,92.285,37.109,34.180,76.660,57.617
1578401996.472,87.402,44.922,29.785,69.824,21.484
1578401996.476,62.988,28.320,-1.465,52.734,-20.020
1578401996.480,67.871,46.387,19.531,61.035,34.180
1578401996.484,79.102,53.223,51.270,71.289,96.680
1578401996.487,77.637,37.109,43.945,64.453,73.730
1578401996.491,71.777,41.016,27.832,49.805,17.090
1578401996.495,80.566,39.551,30.762,63.965,41.016
1578401996.499,74.219,26.367,28.809,80.078,62.012
1578401996.503,42.969,34.668,26.367,56.641,17.578
1578401996.507,44.434,54.688,43.457,50.781,66.895
1578401996.511,42.480,47.363,47.363,43.945,86.426
1578401996.515,21.973,40.039,52.246,30.762,3.418
1578401996.519,23.438,39.062,52.246,46.387,17.090
1578401996.523,30.762,38.574,48.828,52.734,48.828
1578401996.527,36.133,52.246,53.711,47.363,36.621
1578401996.530,25.391,41.016,39.062,34.668,40.527
1578401996.534,26.855,32.227,28.320,33.203,7.812
1578401996.538,40.039,40.527,39.551,50.781,3.418
1578401996.542,26.367,34.668,43.457,45.898,39.062
1578401996.546,29.785,33.203,48.340,44.922,50.293
1578401996.550,45.410,35.645,53.223,52.734,12.207
1578401996.554,36.621,35.645,45.410,36.621,3.418
1578401996.558,28.320,37.109,37.109,35.156,4.883
1578401996.562,25.879,26.367,26.855,38.574,1.465
1578401996.566,37.598,29.297,41.016,42.480,-25.879
1578401996.570,42.969,38.574,53.223,40.039,-3.418
1578401996.573,40.527,34.180,41.504,34.180,2.441
1578401996.577,34.668,35.156,28.809,35.156,5.371
1578401996.581,35.645,47.852,33.691,42.969,58.594
1578401996.585,43.457,50.293,34.668,47.363,46.387
1578401996.589,42.480,45.410,33.691,42.969,90.820
1578401996.593,33.691,31.738,38.574,36.133,100.098
1578401996.597,39.551,22.461,27.344,43.457,53.223
1578401996.601,52.246,24.902,28.320,57.129,81.055
1578401996.605,55.664,42.969,47.363,58.105,62.012
1578401996.609,56.152,50.781,58.105,51.270,35.645
1578401996.612,39.551,15.137,36.621,37.109,69.824
1578401996.616,38.086,17.090,14.160,42.969,57.617
1578401996.620,58.594,53.711,46.875,68.359,12.207
1578401996.624,66.895,69.824,70.312,73.242,25.879
1578401996.628,49.316,44.922,33.203,45.410,7.324
1578401996.632,59.082,45.898,30.762,48.340,-40.527
1578401996.636,70.801,69.824,59.570,62.500,28.809
1578401996.640,43.457,46.387,48.340,50.781,92.285
1578401996.644,28.809,27.344,16.113,39.551,60.547
1578401996.648,34.180,30.762,17.090,32.227,8.301
1578401996.652,33.203,25.391,32.227,26.367,3.906
1578401996.655,34.180,27.344,32.227,28.320,25.879
1578401996.659,51.270,47.363,43.457,47.852,90.332
1578401996.663,67.871,51.758,48.828,63.965,104.004
1578401996.667,66.895,61.523,55.664,61.035,72.754
1578401996.671,46.387,58.594,47.363,40.039,51.270
1578401996.675,35.645,37.598,27.344,30.273,44.922
1578401996.679,34.668,31.250,25.879,33.203,77.637
1578401996.683,36.133,29.297,27.344,38.086,66.406
1578401996.687,37.109,27.832,28.320,41.016,39.062
1578401996.691,33.203,37.598,35.156,25.391,14.648
1578401996.695,59.082,53.223,62.500,43.457,-25.879
1578401996.698,54.688,39.551,57.617,55.176,23.926
1578401996.702,28.320,21.484,21.973,37.109,46.875
1578401996.706,49.316,31.738,5.371,55.176,26.855
1578401996.710,45.898,37.109,17.090,44.922,61.035
1578401996.714,34.180,42.480,39.062,27.344,59.082
1578401996.718,36.621,44.434,48.828,38.086,47.852
1578401996.722,22.949,32.227,41.504,35.645,47.852
1578401996.726,32.227,26.855,33.203,39.551,29.297
1578401996.730,31.738,26.855,27.832,39.062,0.000
1578401996.734,51.270,47.363,47.852,60.547,20.508
1578401996.737,75.684,62.500,71.777,85.938,39.551
1578401996.741,41.992,36.621,42.969,58.105,10.254
1578401996.745,12.695,22.461,3.418,27.344,23.926
1578401996.749,12.695,22.461,4.395,21.973,78.613
1578401996.753,14.160,21.484,17.578,19.531,41.992
1578401996.757,18.066,28.320,27.832,27.344,-28.320
1578401996.761,36.621,48.340,50.781,49.316,-14.160
1578401996.765,31.738,49.805,56.152,46.875,55.176
1578401996.769,31.250,44.922,55.176,39.551,71.777
1578401996.773,35.156,50.781,42.969,36.133,17.578
1578401996.777,34.180,46.387,26.855,38.574,-36.133
1578401996.780,29.297,36.133,20.996,46.387,16.113
1578401996.784,23.926,27.344,22.949,41.016,41.016
1578401996.788,48.828,41.992,37.598,56.152,28.809
1578401996.792,49.316,44.434,40.039,52.246,36.621
1578401996.796,32.715,32.715,45.898,31.250,26.855
1578401996.800,42.969,45.898,59.082,45.410,45.898
1578401996.804,46.875,52.734,46.387,47.852,63.965
1578401996.808,30.273,30.762,20.508,28.320,24.902
1578401996.812,32.227,31.738,26.855,25.391,3.906
1578401996.816,40.039,37.109,39.062,32.227,59.082
1578401996.820,51.270,46.875,49.316,49.316,33.203
1578401996.823,46.387,47.363,52.734,42.480,9.277
1578401996.827,32.715,41.504,52.246,23.438,11.719
1578401996.831,31.738,37.598,47.363,20.508,-16.113
1578401996.835,38.086,29.785,35.645,29.785,25.879
1578401996.839,43.945,34.668,41.992,46.387,56.152
1578401996.843,50.781,47.852,42.969,56.641,26.367
1578401996.847,54.688,62.988,45.410,55.176,6.836
1578401996.851,55.664,61.523,56.641,43.945,25.391
1578401996.855,43.457,29.785,28.809,28.320,25.391
1578401996.859,38.086,29.785,18.555,25.879,46.875
1578401996.862,41.992,44.434,42.969,33.691,37.109
1578401996.866,42.969,37.598,42.969,28.320,12.695
1578401996.870,60.547,45.898,40.039,35.156,-7.324
1578401996.874,71.289,56.641,47.852,55.176,-12.207
1578401996.878,38.574,38.086,16.602,32.227,26.367
1578401996.882,23.926,18.555,6.836,22.461,11.719
1578401996.886,39.062,34.668,44.434,28.320,-20.996
1578401996.890,37.598,52.246,47.852,17.578,4.883
1578401996.894,23.438,47.363,22.461,12.207,43.945
1578401996.898,31.738,52.246,24.902,32.227,36.133
1578401996.902,36.133,46.387,41.992,36.133,42.969
1578401996.905,38.574,39.062,53.223,35.645,54.199
1578401996.909,44.922,44.434,39.551,37.598,65.430
1578401996.913,49.316,48.828,32.227,40.527,69.336
1578401996.917,42.480,44.922,32.227,40.039,57.129
1578401996.921,32.227,30.762,30.762,32.227,67.871
1578401996.925,33.203,18.555,32.227,35.645,79.590
1578401996.929,34.668,22.949,32.715,26.855,67.383
1578401996.933,45.410,41.992,37.598,27.344,51.270
1578401996.937,37.598,50.293,41.016,35.156,67.383
1578401996.941,19.043,40.527,29.297,28.320,64.941
1578401996.945,20.508,32.227,33.691,32.227,19.531
1578401996.948,26.367,29.785,36.621,27.344,-3.418
1578401996.952,29.785,30.762,27.344,27.344,-31.250
1578401996.956,25.391,34.668,36.621,30.762,-9.766
1578401996.960,14.648,26.367,36.133,25.391,35.156
1578401996.964,26.855,27.832,33.203,34.180,23.926
1578401996.968,45.898,47.852,54.199,46.387,67.871
1578401996.972,46.387,46.875,53.223,45.410,33.203
1578401996.976,33.203,31.250,23.926,32.227,-26.855
1578401996.980,41.016,34.180,36.621,43.945,46.387
1578401996.984,30.762,27.832,40.039,34.180,67.871
1578401996.987,11.719,21.973,18.555,12.695,24.902
1578401996.991,29.785,40.527,22.949,23.926,11.230
1578401996.995,43.945,49.316,41.992,39.551,24.902
1578401996.999,47.852,53.223,59.082,54.199,31.250
1578401997.003,47.852,53.223,49.805,52.734,81.055
1578401997.007,39.551,42.969,38.086,31.250,63.477
1578401997.011,37.598,40.527,41.992,26.367,58.594
1578401997.015,38.086,32.227,38.086,28.320,78.613
1578401997.019,32.227,15.625,27.832,27.832,6.836
1578401997.023,25.391,6.836,20.996,24.414,12.695
1578401997.027,30.762,24.902,25.879,25.391,72.266
1578401997.030,43.457,51.270,39.551,34.180,55.664
1578401997.034,53.223,56.152,46.387,42.969,-3.906
1578401997.038,34.180,46.387,53.223,37.598,20.508
1578401997.042,14.648,34.180,36.133,22.949,90.332
1578401997.046,29.785,35.645,34.668,30.273,58.105
1578401997.050,40.039,34.180,41.016,34.180,-21.973
1578401997.054,24.902,27.344,30.273,22.461,-41.992
1578401997.058,26.855,22.461,22.461,26.855,21.484
1578401997.062,43.457,31.738,31.738,46.387,57.617
1578401997.066,38.574,45.898,28.809,39.551,20.020
1578401997.070,34.180,56.641,16.602,25.391,-14.160
1578401997.073,33.203,53.711,34.180,22.461,5.859
1578401997.077,32.227,50.293,48.828,32.227,8.789
1578401997.081,40.527,46.387,46.387,55.664,29.297
1578401997.085,34.180,29.297,35.645,42.969,18.066
1578401997.089,29.785,33.203,28.809,22.949,20.508
1578401997.093,41.016,38.086,34.668,31.738,45.898
1578401997.097,39.062,39.551,26.367,33.691,14.648
1578401997.101,39.551,53.223,28.809,41.992,52.734
1578401997.105,52.246,53.711,56.641,55.176,47.852
1578401997.109,45.898,42.480,51.758,38.574,10.254
1578401997.112,32.715,36.621,36.133,21.973,35.645
1578401997.116,37.109,45.410,37.109,34.180,29.297
1578401997.120,43.945,44.922,22.949,40.039,55.664
1578401997.124,34.668,28.809,26.855,28.320,73.730
1578401997.128,29.297,33.203,33.691,18.066,84.961
1578401997.132,39.551,44.922,31.250,25.879,101.074
1578401997.136,48.828,50.293,41.992,40.527,49.316
1578401997.140,54.688,53.223,50.293,53.223,42.480
1578401997.144,40.527,34.668,39.551,41.504,48.340
1578401997.148,38.086,38.086,38.086,37.109,54.199
1578401997.152,60.059,44.922,50.781,50.293,36.133
1578401997.155,54.688,26.855,33.203,44.434,27.832
1578401997.159,41.016,36.621,21.973,42.480,55.176
1578401997.163,37.598,60.547,42.969,41.016,58.105
1578401997.167,35.645,50.293,36.621,30.273,83.984
1578401997.171,27.832,24.414,19.043,12.207,65.430
1578401997.175,15.137,24.902,22.461,3.906,8.301
1578401997.179,26.855,33.691,31.738,23.438,-27.344
1578401997.183,52.246,44.434,56.641,49.316,-13.184
1578401997.187,33.203,40.527,36.133,34.668,-6.836
1578401997.191,24.414,23.926,10.254,20.020,-19.531
1578401997.195,48.340,42.480,52.734,45.410,31.250
1578401997.198,37.598,58.594,58.594,48.828,47.363
1578401997.202,25.879,41.016,32.715,33.691,15.625
1578401997.206,40.527,35.156,34.668,37.109,20.020
1578401997.210,49.316,37.109,40.039,44.434,3.906
1578401997.214,50.781,37.109,31.250,44.434,29.785
1578401997.218,41.992,33.203,30.273,37.109,51.758
1578401997.222,40.527,34.180,46.387,42.969,6.836
1578401997.226,43.945,40.039,51.758,46.387,35.156
1578401997.230,38.086,30.273,35.156,28.809,63.965
1578401997.234,51.758,41.504,34.668,38.086,64.453
1578401997.237,49.805,48.828,45.898,48.340,31.738
1578401997.241,19.043,22.461,28.809,26.855,31.738
1578401997.245,14.160,25.391,26.367,17.090,46.875
1578401997.249,26.367,34.668,32.715,21.973,70.801
1578401997.253,42.969,42.480,35.156,38.086,81.543
1578401997.257,49.805,52.734,41.992,52.246,38.086
1578401997.261,44.434,51.758,38.574,48.828,38.574
1578401997.265,48.828,57.617,58.105,48.828,59.082
1578401997.269,57.129,61.035,68.848,53.223,50.781
1578401997.273,44.922,38.086,37.109,39.551,56.152
1578401997.277,36.621,25.391,21.484,32.227,64.453
1578401997.280,29.785,41.016,32.227,36.133,68.848
1578401997.284,30.762,42.480,50.781,39.062,38.086
1578401997.288,36.621,25.879,50.781,30.273,16.602
1578401997.292,44.922,41.016,47.852,35.645,19.043
1578401997.296,60.547,62.012,58.105,58.594,-4.883
1578401997.300,38.574,43.945,36.621,44.434,32.227
1578401997.304,26.367,28.320,23.926,27.832,50.781
1578401997.308,30.273,30.762,34.180,24.414,9.766
1578401997.312,34.180,35.156,41.016,24.902,13.672
1578401997.316,50.293,41.992,57.617,45.410,23.926
1578401997.320,56.641,33.203,43.457,60.059,27.344
1578401997.323,47.363,35.645,41.504,55.176,25.391
1578401997.327,27.832,47.852,58.594,34.668,6.836
1578401997.331,11.230,35.156,42.969,10.254,3.418
1578401997.335,12.695,37.598,31.738,7.812,29.785
1578401997.339,19.043,44.434,36.621,17.090,21.973
1578401997.343,24.414,41.992,35.645,28.809,-8.301
1578401997.347,28.809,41.504,43.457,33.691,8.301
1578401997.351,24.902,29.297,35.156,20.508,40.039
1578401997.355,38.574,41.016,33.691,33.203,36.621
1578401997.359,50.293,46.875,51.270,55.176,52.734
1578401997.362,25.391,17.578,31.738,38.086,30.762
1578401997.366,11.230,11.230,5.859,16.113,23.438
1578401997.370,18.555,18.066,22.949,17.090,69.336
1578401997.374,33.691,40.527,51.270,37.109,69.336
1578401997.378,40.527,45.410,35.645,47.363,45.410
1578401997.382,37.109,33.691,32.715,48.340,99.609
1578401997.386,22.461,29.297,41.504,30.273,89.844
1578401997.390,11.719,20.020,8.789,11.719,32.227
1578401997.394,31.250,27.832,23.438,31.250,37.109
1578401997.398,34.668,22.461,48.828,37.109,15.137
1578401997.402,26.855,35.156,37.109,34.180,7.812
1578401997.405,36.133,48.828,30.273,42.969,45.898
1578401997.409,38.086,29.785,28.809,35.645,40.527
1578401997.413,42.480,37.109,45.898,35.156,-0.977
1578401997.417,36.133,39.551,53.223,28.809,-36.133
1578401997.421,31.250,29.297,46.875,25.879,-7.812
1578401997.425,40.039,36.133,44.434,35.156,61.523
1578401997.429,37.598,38.086,34.668,26.367,32.715
1578401997.433,44.922,43.945,29.297,30.273,-0.977
1578401997.437,56.152,42.969,30.762,47.363,35.645
1578401997.441,51.758,39.551,35.156,48.828,61.523
1578401997.445,39.062,30.762,24.902,35.156,26.367
1578401997.448,34.668,22.949,24.902,34.668,-3.418
1578401997.452,41.992,41.504,38.086,41.992,47.852
1578401997.456,38.086,41.992,33.203,40.527,6.836
1578401997.460,48.340,59.082,56.641,62.988,-53.711
1578401997.464,41.504,57.617,67.871,59.082,31.738
1578401997.468,20.020,26.855,38.574,28.809,103.027
1578401997.472,25.391,26.855,29.297,26.855,45.410
1578401997.476,30.762,38.574,30.762,37.598,10.254
1578401997.480,34.180,44.434,36.621,51.758,30.273
1578401997.484,38.086,34.668,44.434,53.223,48.828
1578401997.487,41.992,37.109,53.223,42.969,11.230
1578401997.491,44.922,49.805,52.246,40.039,-2.930
1578401997.495,41.992,45.898,48.340,40.039,18.066
1578401997.499,36.621,43.945,32.715,39.062,35.156
1578401997.503,33.691,29.785,18.555,36.133,34.180
1578401997.507,47.363,40.527,41.992,44.922,34.180
1578401997.511,55.176,50.781,50.781,49.316,38.574
1578401997.515,43.457,32.227,34.668,39.062,24.902
1578401997.519,36.621,36.133,33.203,42.480,6.836
1578401997.523,21.973,31.250,28.320,29.297,11.719
1578401997.527,22.461,34.180,31.738,26.855,109.863
1578401997.530,33.691,41.016,39.062,29.785,71.777
1578401997.534,33.203,33.203,40.039,20.508,47.852
1578401997.538,48.828,33.691,42.969,36.621,42.480
1578401997.542,57.129,38.086,36.621,46.387,-20.508
1578401997.546,57.617,38.086,40.527,44.434,4.395
1578401997.550,47.363,28.320,25.391,33.203,-8.301
1578401997.554,44.434,35.645,15.625,30.762,-10.254
1578401997.558,51.758,34.668,35.645,38.086,16.602
1578401997.562,47.852,39.551,33.691,38.086,41.504
1578401997.566,49.805,51.758,36.133,44.922,85.449
1578401997.570,44.922,44.434,51.270,42.969,72.754
1578401997.573,47.363,44.434,49.805,42.969,9.277
1578401997.577,41.016,40.039,42.480,40.527,27.832
1578401997.581,39.551,36.621,43.945,47.363,68.848
1578401997.585,47.363,52.246,30.273,52.734,7.812
1578401997.589,49.316,45.410,23.926,46.387,48.340
1578401997.593,49.316,43.945,45.410,37.598,106.445
1578401997.597,31.738,51.270,45.898,21.973,3.906
1578401997.601,28.320,44.922,46.387,27.344,-16.113
1578401997.605,32.715,37.598,45.410,33.203,41.016
1578401997.609,29.785,26.855,32.715,20.020,-21.484
1578401997.612,45.898,31.738,23.926,28.809,-24.414
1578401997.616,60.059,45.898,16.602,47.363,48.828
1578401997.620,49.805,43.457,25.879,48.828,97.168
1578401997.624,40.039,40.039,42.969,41.992,101.074
1578401997.628,38.574,39.551,44.922,33.691,61.035
1578401997.632,40.527,44.434,40.039,37.109,23.926
1578401997.636,48.340,48.340,38.086,41.504,12.207
1578401997.640,47.852,49.316,47.363,43.945,53.223
1578401997.644,40.039,45.898,50.293,49.805,36.621
1578401997.648,39.062,37.598,34.668,49.316,2.441
1578401997.652,44.434,37.109,30.762,45.410,38.574
1578401997.655,49.805,45.410,47.363,51.270,44.922
1578401997.659,45.898,37.109,51.270,54.199,32.227
1578401997.663,32.715,28.809,50.781,46.387,45.898
1578401997.667,27.832,34.180,42.969,36.621,69.336
1578401997.671,46.875,49.805,39.551,44.434,94.238
1578401997.675,63.965,62.500,49.316,61.035,95.215
1578401997.679,62.500,41.992,41.992,65.918,56.152
1578401997.683,58.594,24.902,34.668,71.777,34.668
1578401997.687,37.598,31.738,22.949,41.016,17.090
1578401997.691,26.367,44.434,28.320,16.602,-24.902
1578401997.695,36.621,40.039,37.598,28.809,-1.953
1578401997.698,38.086,35.645,37.598,39.551,32.715
1578401997.702,51.270,51.270,52.734,62.500,26.367
1578401997.706,57.129,49.316,47.363,65.918,-21.973
1578401997.710,48.340,38.574,41.992,50.293,-51.270
1578401997.714,51.270,38.574,38.574,44.434,-19.531
1578401997.718,36.621,22.461,20.020,32.715,18.066
1578401997.722,30.762,24.414,19.531,31.250,27.344
1578401997.726,46.875,37.598,22.949,42.480,35.156
1578401997.730,46.387,32.227,21.973,35.645,43.945
1578401997.734,48.828,31.250,27.344,32.715,3.418
1578401997.737,56.152,38.086,37.109,46.387,-36.133
1578401997.741,62.500,43.945,44.434,61.035,46.875
1578401997.745,52.734,46.387,33.691,54.199,78.613
1578401997.749,30.273,34.668,28.809,27.344,29.785
1578401997.753,32.227,22.949,45.898,25.879,32.227
1578401997.757,39.551,27.344,52.246,43.945,50.293
1578401997.761,43.945,34.180,43.945,51.270,50.293
1578401997.765,48.828,39.551,32.715,49.805,26.367
1578401997.769,57.129,50.293,25.391,51.270,46.387
1578401997.773,49.316,34.668,21.484,34.668,63.965
1578401997.777,49.316,31.250,22.949,36.621,-30.762
1578401997.780,43.457,33.691,27.832,42.480,-36.621
1578401997.784,27.832,23.438,41.504,27.832,41.016
1578401997.788,22.949,17.578,47.363,19.531,42.480
1578401997.792,31.738,26.855,44.922,26.367,-11.719
1578401997.796,65.918,51.758,44.922,56.152,-23.438
1578401997.800,63.477,48.828,11.719,56.152,21.484
1578401997.804,37.109,30.273,4.395,30.762,44.922
1578401997.808,33.691,28.809,39.062,28.320,48.340
1578401997.812,44.922,27.832,57.617,37.598,62.500
1578401997.816,43.457,17.578,47.852,32.227,48.828
1578401997.820,38.086,34.180,37.598,33.203,5.371
1578401997.823,50.293,61.523,50.293,54.199,21.973
1578401997.827,38.574,43.945,30.762,35.156,94.727
1578401997.831,45.898,40.039,16.113,33.691,91.309
1578401997.835,59.570,50.781,36.621,50.293,62.012
1578401997.839,42.480,34.180,39.551,38.574,88.867
1578401997.843,35.156,27.344,48.828,41.504,117.188
1578401997.847,53.223,42.480,63.477,57.129,85.449
1578401997.851,40.039,32.227,31.250,36.133,-13.184
1578401997.855,19.043,16.602,17.578,17.090,-26.855
1578401997.859,31.250,33.203,30.273,36.133,57.129
1578401997.862,33.691,35.156,15.625,37.109,73.242
1578401997.866,40.527,39.062,29.785,41.992,30.273
1578401997.870,44.922,45.410,55.176,44.434,54.688
1578401997.874,30.273,37.598,50.781,26.367,53.223
1578401997.878,34.180,38.086,45.898,26.367,-40.527
1578401997.882,56.152,59.082,49.805,52.734,-7.812
1578401997.886,62.988,62.500,49.316,67.383,68.848
1578401997.890,42.480,30.273,25.879,37.109,23.438
1578401997.894,31.738,14.160,16.113,22.461,14.648
1578401997.898,35.156,16.602,38.574,40.039,9.766
1578401997.902,40.039,28.809,36.133,49.805,16.113
1578401997.905,47.363,47.363,46.875,52.734,9.766
1578401997.909,40.527,57.617,62.012,44.922,-0.977
1578401997.913,27.832,46.387,48.340,23.438,-25.391
1578401997.917,49.316,50.293,61.035,42.480,-52.734
1578401997.921,48.340,41.016,53.223,45.410,4.395
1578401997.925,27.832,30.273,19.531,25.879,25.391
1578401997.929,30.273,32.227,16.602,30.273,37.109
1578401997.933,38.574,28.809,37.109,31.738,48.340
1578401997.937,53.223,38.086,49.316,43.457,17.578
1578401997.941,51.270,38.574,42.480,50.293,29.297
1578401997.945,38.086,30.762,34.668,42.480,32.227
1578401997.948,38.086,38.574,45.410,35.156,13.184
1578401997.952,41.016,57.129,49.805,34.180,32.227
1578401997.956,34.180,49.316,38.574,30.273,47.852
1578401997.960,42.480,48.828,46.387,41.504,37.598
1578401997.964,44.922,47.852,45.410,45.410,34.180
1578401997.968,46.387,43.945,38.574,41.504,23.926
1578401997.972,62.988,59.082,46.875,50.781,49.316
1578401997.976,53.223,48.828,27.344,42.480,62.988
1578401997.980,45.410,32.227,26.367,47.363,59.082
1578401997.984,39.062,27.832,46.387,46.387,70.801
1578401997.987,29.785,19.531,36.133,30.273,69.824
1578401997.991,30.273,26.367,25.391,23.438,40.039
1578401997.995,39.551,44.922,33.203,33.203,29.785
1578401997.999,44.922,49.805,46.387,46.387,45.410
1578401998.003,42.969,46.875,53.223,48.828,47.363
1578401998.007,46.875,48.340,60.547,53.223,69.336
1578401998.011,45.898,45.898,55.176,41.016,19.531
1578401998.015,43.945,34.668,40.527,36.133,-11.719
1578401998.019,40.527,29.297,32.715,46.387,56.152
1578401998.023,41.504,35.645,43.945,50.293,39.551
1578401998.027,41.016,36.621,40.039,46.875,32.227
1578401998.030,36.133,32.715,24.902,32.715,6.836
1578401998.034,37.598,39.551,35.156,26.367,-8.789
1578401998.038,34.180,41.504,50.781,31.738,-7.812
1578401998.042,33.203,50.781,52.246,33.203,9.766
1578401998.046,33.203,50.293,39.551,29.297,7.812
1578401998.050,43.457,46.875,45.898,37.598,16.113
1578401998.054,52.734,47.852,51.270,38.086,22.461
1578401998.058,45.898,41.504,35.645,33.203,5.371
1578401998.062,45.410,30.762,35.645,43.457,41.992
1578401998.066,31.250,25.391,30.273,31.250,59.570
1578401998.070,35.645,37.109,36.133,33.203,31.250
1578401998.073,35.645,41.992,47.852,32.227,-35.156
1578401998.077,40.527,60.547,49.316,41.016,-58.105
1578401998.081,51.270,56.152,48.828,64.453,35.645
1578401998.085,55.176,42.969,43.457,67.871,36.621
1578401998.089,51.758,46.875,34.180,52.246,35.156
1578401998.093,27.832,41.504,33.203,22.461,90.332
1578401998.097,24.902,39.062,35.645,19.531,48.828
1578401998.101,37.109,39.551,41.016,38.086,9.277
1578401998.105,42.480,41.016,41.016,46.387,49.316
1578401998.109,42.969,38.086,30.762,41.016,47.363
1578401998.112,50.293,32.715,30.762,43.945,34.180
1578401998.116,59.570,34.668,35.645,52.734,45.898
1578401998.120,49.805,41.992,23.926,58.105,2.930
1578401998.124,50.781,47.852,22.949,62.500,13.672
1578401998.128,65.430,51.270,41.992,58.594,41.992
1578401998.132,58.105,48.828,42.480,45.898,22.949
1578401998.136,39.551,41.992,32.715,29.297,8.301
1578401998.140,25.391,27.832,22.949,20.020,36.133
1578401998.144,25.391,24.414,32.715,25.879,55.664
1578401998.148,27.832,31.738,44.922,26.855,78.613
1578401998.152,31.250,32.715,38.086,26.367,66.406
1578401998.155,41.992,38.574,37.109,39.062,41.992
1578401998.159,43.457,36.133,44.922,43.457,71.289
1578401998.163,35.645,26.855,33.691,41.992,84.473
1578401998.167,41.992,45.410,35.156,51.270,62.988
1578401998.171,50.781,66.895,45.898,46.875,34.668
1578401998.175,46.387,58.105,45.898,31.738,5.371
1578401998.179,29.785,37.598,33.203,23.926,-22.461
1578401998.183,24.414,21.484,14.648,22.461,-15.625
1578401998.187,43.945,27.344,28.809,38.574,3.906
1578401998.191,43.945,35.645,42.480,33.691,-5.371
1578401998.195,40.527,43.457,44.922,31.738,20.996
1578401998.198,48.828,48.828,46.875,52.734,49.316
1578401998.202,53.711,47.852,42.480,57.129,30.273
1578401998.206,52.246,56.152,40.039,53.223,28.320
1578401998.210,51.758,58.594,29.785,50.293,52.734
1578401998.214,54.688,49.805,36.621,50.781,27.832
1578401998.218,50.293,56.641,74.707,60.059,76.660
1578401998.222,20.508,58.105,65.430,41.992,126.465
1578401998.226,5.859,37.598,35.156,20.508,109.375
1578401998.230,23.926,34.180,35.645,20.996,89.844
1578401998.234,32.227,41.016,34.180,16.113,39.551
1578401998.237,21.973,27.832,32.715,15.625,16.113
1578401998.241,24.902,23.438,34.180,22.461,8.301
1578401998.245,41.504,31.738,36.133,34.668,-8.789
1578401998.249,41.504,35.156,41.016,40.039,43.457
1578401998.253,36.621,30.273,38.086,38.574,73.242
1578401998.257,46.387,22.949,36.133,52.246,53.711
1578401998.261,52.734,20.020,37.598,66.895,33.203
1578401998.265,46.875,16.602,41.992,61.035,7.812
1578401998.269,47.363,19.043,41.016,57.129,54.688
1578401998.273,63.965,23.438,41.504,69.824,54.199
1578401998.277,71.777,24.902,43.945,74.707,10.742
1578401998.280,69.824,29.297,42.969,75.684,20.996
1578401998.284,69.824,36.621,43.945,79.102,31.250
1578401998.288,70.801,35.645,41.504,78.125,50.781
1578401998.292,74.219,27.832,44.922,77.148,68.848
1578401998.296,78.613,30.273,51.758,75.684,20.508
1578401998.300,80.078,41.016,43.945,81.055,-5.371
1578401998.304,78.613,40.527,38.574,85.449,54.688
1578401998.308,69.824,37.109,39.551,74.219,74.219
1578401998.312,63.477,39.062,38.574,61.035,38.574
1578401998.316,66.895,37.109,41.016,58.594,44.922
1578401998.320,59.082,27.344,37.598,62.500,49.805
1578401998.323,55.176,24.902,23.438,72.754,27.344
1578401998.327,67.383,36.621,31.738,74.707,19.043
1578401998.331,67.383,40.527,45.410,60.059,20.996
1578401998.335,58.105,28.320,40.039,51.270,22.949
1578401998.339,58.105,21.484,41.992,59.082,-32.715
1578401998.343,74.219,34.668,47.852,76.660,-3.906
1578401998.347,75.195,35.156,43.457,81.055,72.754
1578401998.351,65.918,28.809,44.922,75.684,110.840
1578401998.355,76.172,42.969,47.363,74.707,61.523
1578401998.359,77.637,44.434,45.410,78.613,9.766
1578401998.362,62.500,33.691,37.598,69.336,-9.277
1578401998.366,55.664,42.480,28.809,59.082,-3.418
1578401998.370,63.965,54.688,40.039,64.453,58.105
1578401998.374,58.105,42.480,24.902,48.828,47.852
1578401998.378,43.945,33.691,6.348,37.109,10.742
1578401998.382,52.246,38.574,23.438,53.711,1.953
1578401998.386,58.594,42.969,30.762,54.688,8.301
1578401998.390,58.105,39.551,28.809,42.480,14.160
1578401998.394,65.430,41.992,40.527,44.922,-6.348
1578401998.398,64.941,44.434,43.945,48.828,-40.039
1578401998.402,61.035,44.922,37.598,43.945,6.348
1578401998.405,63.477,52.734,42.969,56.641,8.789
1578401998.409,65.918,45.898,32.227,62.012,14.160
1578401998.413,60.547,40.039,25.391,52.734,47.363
1578401998.417,57.129,42.969,49.805,57.617,39.551
1578401998.421,44.922,30.762,41.504,54.688,38.086
1578401998.425,45.898,38.086,39.551,64.453,5.371
1578401998.429,41.504,38.086,41.016,56.152,32.227
1578401998.433,25.391,27.832,24.902,25.879,84.961
1578401998.437,22.461,25.879,23.926,23.438,32.715
1578401998.441,29.297,27.832,26.367,37.598,0.977
1578401998.445,41.016,30.762,36.133,52.734,66.895
1578401998.448,50.293,38.086,38.086,53.223,72.266
1578401998.452,41.504,38.574,38.086,40.527,42.969
1578401998.456,51.270,44.922,49.316,51.270,9.766
1578401998.460,62.012,52.246,51.758,63.477,47.363
1578401998.464,47.852,36.133,32.227,48.828,81.543
1578401998.468,45.898,35.645,27.344,41.016,134.277
1578401998.472,41.016,36.133,33.203,38.086,30.762
1578401998.476,44.434,38.086,47.363,41.016,-102.051
1578401998.480,45.898,39.551,45.898,48.340,11.719
1578401998.484,29.297,27.832,33.691,49.805,92.285
1578401998.487,32.715,24.902,46.875,53.711,95.215
1578401998.491,42.480,38.086,58.594,55.176,63.477
1578401998.495,47.363,44.922,53.223,48.828,-5.371
1578401998.499,42.480,36.621,33.203,45.898,-59.082
1578401998.503,32.227,33.691,29.785,48.828,-29.297
1578401998.507,50.293,43.457,43.945,57.129,24.414
1578401998.511,56.641,45.410,41.504,49.316,57.617
1578401998.515,45.898,35.156,23.438,37.598,23.438
1578401998.519,47.363,37.109,17.578,45.898,-16.113
1578401998.523,52.734,43.945,32.227,57.617,5.371
1578401998.527,47.363,38.086,39.551,56.641,31.250
1578401998.530,39.062,32.715,26.367,46.387,19.043
1578401998.534,45.410,44.434,18.555,38.574,41.504
1578401998.538,46.875,49.316,30.273,39.551,55.176
1578401998.542,49.316,48.340,35.156,50.293,65.430
1578401998.546,41.992,48.340,27.344,45.898,105.469
1578401998.550,29.785,42.480,31.738,33.203,101.074
1578401998.554,29.297,41.504,24.414,24.414,24.414
1578401998.558,35.645,41.992,24.414,26.367,-11.719
1578401998.562,30.273,38.086,33.203,36.133,16.113
1578401998.566,29.297,37.598,28.809,37.109,28.809
1578401998.570,39.551,40.039,32.715,38.086,41.504
1578401998.573,39.551,37.598,39.551,40.527,53.223
1578401998.577,37.109,29.785,37.598,39.062,29.297
1578401998.581,41.992,31.250,42.480,46.387,18.555
1578401998.585,48.828,47.852,47.363,55.176,51.758
1578401998.589,59.082,56.152,34.668,53.223,67.871
1578401998.593,51.270,52.734,23.926,38.086,72.266
1578401998.597,46.875,44.434,30.762,29.297,54.688
1578401998.601,43.457,37.109,32.227,29.785,74.219
1578401998.605,30.762,27.344,30.762,28.320,61.523
1578401998.609,37.109,23.926,30.273,24.902,-23.438
1578401998.612,32.715,22.949,20.020,11.719,-10.742
1578401998.616,30.762,25.391,21.973,14.160,52.734
1578401998.620,41.504,25.391,37.109,29.297,1.465
1578401998.624,46.387,25.391,42.969,42.480,90.820
1578401998.628,50.293,39.062,39.062,49.805,117.676
1578401998.632,52.246,44.434,35.156,49.805,18.066
1578401998.636,57.129,44.922,44.434,47.363,45.898
1578401998.640,68.848,57.129,57.617,61.523,23.926
1578401998.644,55.664,55.664,48.340,63.965,-16.602
1578401998.648,41.992,47.363,27.344,48.340,20.996
1578401998.652,41.992,43.457,30.273,41.992,60.059
1578401998.655,44.434,40.527,42.969,32.227,42.480
1578401998.659,32.715,33.691,42.969,23.926,49.805
1578401998.663,28.320,35.645,41.504,30.273,81.543
1578401998.667,36.621,39.062,28.320,34.180,90.820
1578401998.671,42.480,41.992,30.273,29.297,93.750
1578401998.675,46.387,47.852,29.297,25.879,6.836
1578401998.679,42.969,33.203,24.902,26.367,-61.523
1578401998.683,42.969,23.926,33.203,32.227,32.227
1578401998.687,47.363,44.434,37.109,41.016,62.500
1578401998.691,48.828,54.688,45.410,29.785,23.926
1578401998.695,40.527,42.969,31.738,14.648,16.602
1578401998.698,43.457,40.039,24.902,21.973,60.059
1578401998.702,39.062,37.598,20.508,32.715,100.586
1578401998.706,26.367,27.344,4.883,28.809,58.594
1578401998.710,31.250,20.996,25.879,25.391,89.355
1578401998.714,41.504,24.414,44.922,27.832,75.684
1578401998.718,39.062,31.738,43.457,27.344,42.969
1578401998.722,37.598,35.156,40.039,32.715,27.832
1578401998.726,40.039,32.227,29.785,42.480,45.898
1578401998.730,39.551,34.668,34.180,41.016,30.273
1578401998.734,39.551,43.945,37.109,38.574,-1.953
1578401998.737,44.922,44.922,38.574,44.434,22.461
1578401998.741,44.922,42.969,48.340,50.781,32.715
1578401998.745,39.551,51.270,35.156,48.828,21.973
1578401998.749,30.762,44.922,10.254,32.715,40.039
1578401998.753,31.250,30.273,19.531,24.902,62.988
1578401998.757,41.992,31.250,43.457,38.086,6.348
1578401998.761,47.363,42.480,54.688,50.781,-1.953
1578401998.765,39.062,41.992,49.316,46.387,29.785
1578401998.769,30.762,29.297,41.016,45.898,34.180
1578401998.773,33.691,31.250,36.621,37.598,11.719
1578401998.777,36.621,31.738,23.926,37.109,-15.137
1578401998.780,41.504,37.109,34.668,53.223,17.578
1578401998.784,43.457,43.457,54.199,52.734,100.586
1578401998.788,44.434,46.875,40.527,47.852,107.910
1578401998.792,54.688,51.758,34.668,53.223,51.270
1578401998.796,54.199,39.062,26.855,48.340,39.062
1578401998.800,41.504,37.109,16.602,30.762,63.477
1578401998.804,44.434,51.270,40.527,39.062,82.031
1578401998.808,43.945,47.852,51.270,42.969,100.586
1578401998.812,39.062,44.434,45.410,36.621,81.055
1578401998.816,43.457,46.875,38.086,41.504,53.223
1578401998.820,35.156,40.527,25.391,36.133,19.531
1578401998.823,36.133,40.527,31.738,42.969,23.926
1578401998.827,47.852,48.340,43.457,59.082,53.711
1578401998.831,38.086,34.668,33.203,42.480,62.012
1578401998.835,23.926,29.785,27.344,24.414,62.500
1578401998.839,27.344,45.410,39.551,34.180,37.109
1578401998.843,43.457,49.805,51.758,48.828,77.148
1578401998.847,39.551,35.156,41.016,44.434,72.266
1578401998.851,40.527,38.574,36.133,42.480,-21.484
1578401998.855,39.062,37.109,31.738,32.227,-12.695
1578401998.859,27.344,30.762,24.414,20.508,14.160
1578401998.862,35.156,44.434,38.574,32.227,-41.016
1578401998.866,34.180,50.293,38.574,33.691,6.348
1578401998.870,35.156,49.805,25.879,24.414,39.062
1578401998.874,46.387,48.340,34.668,23.926,-19.043
1578401998.878,49.316,52.734,47.363,34.668,-10.254
1578401998.882,51.758,57.617,37.109,48.828,-20.508
1578401998.886,62.500,57.129,35.645,61.523,31.250
1578401998.890,58.594,38.086,34.668,57.617,28.320
1578401998.894,60.059,35.645,36.621,43.945,22.949
1578401998.898,57.617,45.410,42.969,35.645,47.363
1578401998.902,50.293,43.945,32.227,41.504,3.906
1578401998.905,59.082,32.715,40.039,58.594,56.641
1578401998.909,54.199,29.785,41.504,53.711,5.371
1578401998.913,47.363,41.504,27.832,40.039,-51.270
1578401998.917,40.039,42.480,37.598,38.086,20.020
1578401998.921,46.875,49.316,50.293,58.105,64.453
1578401998.925,53.711,47.363,43.457,65.918,47.852
1578401998.929,39.062,34.668,47.363,46.875,62.012
1578401998.933,31.250,34.180,45.898,25.879,65.430
1578401998.937,23.438,32.715,36.621,12.207,15.137
1578401998.941,32.227,34.668,47.363,25.879,34.668
1578401998.945,29.297,33.203,44.922,30.273,46.387
1578401998.948,28.320,28.809,36.621,26.855,61.523
1578401998.952,51.758,41.504,39.062,32.715,50.781
1578401998.956,47.363,45.410,27.344,31.738,31.738
1578401998.960,42.480,39.551,25.391,37.598,23.926
1578401998.964,60.547,44.922,40.039,61.523,13.184
1578401998.968,55.664,35.645,38.086,71.289,75.684
1578401998.972,34.668,33.691,46.387,40.527,63.965
1578401998.976,19.043,48.340,48.828,7.812,-29.785
1578401998.980,20.020,63.477,54.199,17.578,-21.484
1578401998.984,11.719,63.965,65.430,18.066,43.457
1578401998.987,-15.625,61.035,61.523,-14.648,35.645
1578401998.991,-23.438,64.453,61.035,-26.855,27.344
1578401998.995,-38.086,53.711,64.453,-41.992,31.250
1578401998.999,-58.594,58.594,72.266,-58.594,57.129
1578401999.003,-59.570,79.102,89.844,-49.316,67.871
1578401999.007,-102.051,77.148,86.914,-93.262,43.457
1578401999.011,-131.348,73.730,77.637,-137.207,60.547
1578401999.015,-130.371,84.961,96.191,-143.066,45.898
1578401999.019,-147.949,96.680,104.980,-160.156,1.465
1578401999.023,-160.645,100.098,96.191,-162.109,5.859
1578401999.027,-173.340,89.844,108.887,-168.457,26.855
1578401999.030,-168.945,93.262,108.398,-171.875,24.902
1578401999.034,-167.480,104.980,105.957,-171.387,-8.789
1578401999.038,-166.016,91.797,100.586,-167.969,18.555
1578401999.042,-133.789,75.684,95.703,-130.371,55.664
1578401999.046,-120.117,81.055,105.957,-113.770,79.590
1578401999.050,-125.977,77.148,88.867,-126.465,67.383
1578401999.054,-110.840,68.848,76.660,-115.234,-6.836
1578401999.058,-79.590,73.730,78.613,-83.984,-18.066
1578401999.062,-75.684,54.688,75.684,-74.219,-2.441
1578401999.066,-88.379,26.367,59.570,-80.078,54.688
1578401999.070,-66.895,32.227,53.711,-65.918,78.613
1578401999.073,-42.969,25.879,45.898,-51.270,75.195
1578401999.077,-24.414,11.230,37.598,-32.715,56.641
1578401999.081,-5.859,12.695,43.457,-3.418,36.621
1578401999.085,-12.207,15.137,37.109,0.488,62.500
1578401999.089,5.859,30.273,41.504,16.602,83.496
1578401999.093,37.109,33.203,44.922,26.367,80.566
1578401999.097,30.273,13.672,24.902,19.531,15.137
1578401999.101,35.645,8.789,7.324,38.086,-21.973
1578401999.105,49.805,14.648,3.418,57.129,54.688
1578401999.109,57.617,17.578,4.395,53.711,35.645
1578401999.112,65.918,16.113,16.602,50.293,-39.551
1578401999.116,71.289,13.184,22.461,63.477,-11.230
1578401999.120,79.590,16.113,8.301,80.078,26.367
1578401999.124,77.148,20.020,1.465,84.473,34.180
1578401999.128,90.820,24.902,19.043,98.633,-13.672
1578401999.132,105.469,34.668,25.879,112.305,41.504
1578401999.136,95.703,28.809,14.160,93.262,54.688
1578401999.140,84.473,13.184,10.254,78.125,26.855
1578401999.144,78.125,8.301,5.371,83.984,41.016
1578401999.148,80.566,14.160,-1.465,86.426,2.930
1578401999.152,88.867,15.137,4.395,83.008,24.902
1578401999.155,97.656,12.695,10.254,87.402,45.410
1578401999.159,94.238,31.250,16.113,93.262,33.203
1578401999.163,81.055,30.273,23.438,88.867,40.039
1578401999.167,86.914,31.250,36.621,92.285,38.086
1578401999.171,90.820,32.715,34.668,84.961,34.180
1578401999.175,88.379,26.855,20.996,72.754,55.176
1578401999.179,93.262,33.691,29.785,82.520,43.457
1578401999.183,101.562,38.574,32.715,93.750,46.387
1578401999.187,94.727,41.504,-0.977,94.238,98.145
1578401999.191,83.008,30.762,-2.930,83.984,90.820
1578401999.195,91.797,28.320,23.926,80.566,37.109
1578401999.198,89.355,35.645,39.062,83.496,29.785
1578401999.202,79.590,28.320,44.434,83.008,37.109
1578401999.206,76.660,34.180,42.480,81.055,57.129
1578401999.210,75.195,25.879,46.875,78.125,59.570
1578401999.214,77.148,14.648,43.945,75.195,24.414
1578401999.218,70.312,33.691,23.438,70.801,21.973
1578401999.222,61.523,44.434,3.418,71.777,45.410
1578401999.226,59.082,35.156,16.602,63.965,31.250
1578401999.230,59.570,27.832,35.645,52.246,22.949
1578401999.234,60.547,32.715,30.762,55.176,51.758
1578401999.237,70.801,37.598,25.879,67.871,14.648
1578401999.241,85.938,42.969,39.551,85.938,10.254
1578401999.245,68.848,41.016,43.945,72.754,92.285
1578401999.249,56.152,33.691,39.062,56.152,50.781
1578401999.253,77.637,40.527,44.434,65.918,50.781
1578401999.257,69.336,42.480,15.625,51.758,133.301
1578401999.261,54.199,23.926,2.441,49.316,7.324
1578401999.265,55.176,20.508,22.461,60.547,-2.441
1578401999.269,56.152,42.969,27.344,50.781,35.156
1578401999.273,57.617,48.340,31.738,38.574,-26.855
1578401999.277,58.105,49.316,38.574,41.016,-2.930
1578401999.280,59.570,52.246,36.133,51.758,40.039
1578401999.284,45.410,40.039,26.367,47.852,60.059
1578401999.288,43.945,36.133,32.227,45.898,36.133
1578401999.292,53.223,41.016,32.227,48.340,6.348
1578401999.296,56.641,43.457,31.250,48.340,-15.137
1578401999.300,54.199,41.992,31.738,52.246,-18.066
1578401999.304,47.363,40.527,30.273,53.711,14.648
1578401999.308,39.062,33.203,24.902,46.875,57.129
1578401999.312,58.105,48.340,28.320,58.594,25.391
1578401999.316,71.777,54.199,37.598,62.012,0.977
1578401999.320,36.621,23.438,11.719,22.461,67.383
1578401999.323,24.902,28.809,2.441,22.461,70.312
1578401999.327,38.086,35.156,19.043,47.363,29.297
1578401999.331,48.340,38.574,32.227,44.922,58.105
1578401999.335,56.641,60.547,42.480,44.922,17.578
1578401999.339,52.246,66.406,44.922,51.270,36.133
1578401999.343,38.574,41.504,39.062,36.133,85.449
1578401999.347,42.969,36.133,44.434,42.480,41.016
1578401999.351,46.387,44.434,35.645,41.992,17.578
1578401999.355,37.109,25.391,14.648,20.508,26.855
1578401999.359,40.527,22.461,20.508,32.715,2.930
1578401999.362,44.434,38.574,25.879,41.504,-32.715
1578401999.366,34.668,37.598,35.156,36.133,-12.207
1578401999.370,41.992,53.223,43.945,48.340,41.992
1578401999.374,46.387,59.570,42.480,47.363,1.953
1578401999.378,62.012,65.918,68.848,63.965,-20.508
1578401999.382,50.781,49.316,54.688,57.617,12.207
1578401999.386,12.207,21.484,16.602,19.531,3.418
1578401999.390,9.766,17.578,9.766,15.625,16.602
1578401999.394,17.090,19.531,4.395,20.508,20.020
1578401999.398,20.020,35.645,23.438,17.578,15.137
1578401999.402,23.438,44.922,45.410,26.367,15.137
1578401999.405,41.504,45.410,41.016,41.504,30.762
1578401999.409,47.852,44.434,30.273,41.504,70.801
1578401999.413,59.570,62.500,50.293,55.176,76.172
1578401999.417,68.359,61.035,63.477,61.035,62.988
1578401999.421,49.805,37.598,40.527,42.969,62.012
1578401999.425,40.527,49.316,26.855,44.922,89.355
1578401999.429,31.250,41.016,18.066,34.668,37.598
1578401999.433,31.738,35.156,33.691,26.367,57.129
1578401999.437,32.227,44.922,42.480,26.855,82.031
1578401999.441,30.762,39.551,36.621,31.250,2.930
1578401999.445,31.738,34.180,50.781,45.410,-35.645
1578401999.448,27.832,37.598,40.527,41.992,29.785
1578401999.452,28.809,43.945,36.133,35.645,44.434
1578401999.456,27.344,37.598,36.621,29.297,-3.418
1578401999.460,30.273,40.527,35.645,40.039,33.203
1578401999.464,36.133,45.898,39.062,49.316,20.020
1578401999.468,23.926,31.738,38.086,26.855,-13.672
1578401999.472,21.973,40.039,41.992,19.043,8.789
1578401999.476,38.086,53.223,45.410,29.785,41.992
1578401999.480,27.832,39.062,49.316,27.344,41.504
1578401999.484,14.160,22.461,38.086,25.391,29.785
1578401999.487,25.879,21.484,34.668,37.109,41.992
1578401999.491,39.062,32.715,37.109,43.945,42.480
1578401999.495,52.246,54.688,43.457,49.805,37.598
1578401999.499,53.223,65.918,59.082,53.711,-0.488
1578401999.503,26.855,38.086,41.992,39.062,-3.418
1578401999.507,23.926,30.762,47.363,34.668,22.461
1578401999.511,23.926,40.527,44.922,25.391,-4.883
1578401999.515,15.625,32.715,23.926,13.672,-4.395
1578401999.519,19.531,27.344,28.320,20.996,36.133
1578401999.523,34.180,30.273,44.434,39.062,44.922
1578401999.527,40.039,30.762,41.016,46.387,88.867
1578401999.530,46.387,39.551,40.039,44.922,63.477
1578401999.534,50.781,40.039,47.852,41.992,36.621
1578401999.538,49.805,40.039,44.922,28.320,59.570
1578401999.542,57.129,55.664,55.664,34.180,20.508
1578401999.546,46.387,48.828,45.410,39.551,8.301
1578401999.550,25.879,33.691,19.531,22.949,29.785
1578401999.554,35.156,36.621,25.879,22.949,30.273
1578401999.558,49.805,41.016,29.297,34.668,-2.930
1578401999.562,42.969,37.598,28.809,36.621,24.414
1578401999.566,42.969,35.156,50.293,44.922,11.230
1578401999.570,44.434,42.480,51.758,42.969,29.297
1578401999.573,55.176,60.059,49.805,48.828,43.945
1578401999.577,49.316,53.711,41.992,41.992,7.812
1578401999.581,26.367,22.949,31.250,26.367,17.090
1578401999.585,25.879,25.391,36.133,32.715,33.203
1578401999.589,41.016,54.199,47.363,48.340,63.965
1578401999.593,39.551,38.574,28.320,35.645,64.453
1578401999.597,38.574,28.320,26.367,26.367,21.484
1578401999.601,49.316,44.922,35.156,38.574,21.973
1578401999.605,46.387,52.734,29.297,46.875,32.227
1578401999.609,39.062,49.316,43.945,44.922,11.230
1578401999.612,34.668,41.016,47.363,34.668,2.930
1578401999.616,35.156,35.645,39.062,28.809,-0.488
1578401999.620,48.828,50.293,50.293,43.457,14.648
1578401999.624,50.293,47.852,41.992,53.711,47.363
1578401999.628,41.504,35.156,31.250,43.945,105.957
1578401999.632,47.852,38.086,38.086,41.016,119.629
1578401999.636,51.758,37.598,30.273,42.969,58.105
1578401999.640,56.641,44.922,15.625,49.805,0.000
1578401999.644,52.246,44.922,17.578,44.922,15.625
1578401999.648,48.828,52.734,42.480,41.992,12.695
1578401999.652,49.316,54.688,51.270,35.645,0.977
1578401999.655,47.852,46.875,53.223,26.855,-9.766
1578401999.659,44.434,35.156,39.551,28.809,0.000
1578401999.663,39.062,38.086,28.809,33.691,29.297
1578401999.667,45.410,55.664,40.039,44.434,38.574
1578401999.671,41.992,48.828,29.297,37.109,34.668
1578401999.675,33.203,39.551,26.367,24.902,43.457
1578401999.679,35.156,38.086,37.109,29.785,57.617
1578401999.683,51.270,35.156,46.387,51.758,61.035
1578401999.687,75.195,40.039,49.805,73.730,5.859
1578401999.691,72.266,56.641,49.805,63.965,-5.859
1578401999.695,48.340,64.941,50.781,31.250,31.738
1578401999.698,26.367,54.199,35.645,12.695,45.898
1578401999.702,18.555,41.992,23.438,18.066,46.387
1578401999.706,19.043,27.344,24.902,24.414,21.484
1578401999.710,25.391,21.973,24.902,25.879,16.602
1578401999.714,32.715,27.832,23.438,25.391,42.969
1578401999.718,40.527,29.785,29.785,33.691,53.711
1578401999.722,59.570,30.273,38.086,55.176,35.645
1578401999.726,70.801,34.180,44.434,73.730,51.270
1578401999.730,64.453,32.227,39.551,69.824,47.363
1578401999.734,71.777,30.273,34.180,66.406,32.227
1578401999.737,84.473,32.227,33.203,71.777,85.938
1578401999.741,73.242,25.879,37.598,79.590,55.176
1578401999.745,71.777,28.809,36.133,89.355,30.762
1578401999.749,82.031,26.855,37.109,91.797,44.922
1578401999.753,83.984,23.438,42.969,82.520,23.926
1578401999.757,82.520,31.250,40.039,82.031,70.801
1578401999.761,86.914,30.273,41.504,92.285,100.586
1578401999.765,83.008,25.879,47.363,98.633,89.355
1578401999.769,78.125,31.250,46.387,92.285,45.410
1578401999.773,87.402,37.598,48.828,86.426,27.344
1578401999.777,88.867,39.062,39.062,81.543,54.199
1578401999.780,81.543,34.180,28.809,77.637,14.648
1578401999.784,76.172,29.785,38.086,79.102,27.344
1578401999.788,73.730,35.156,37.598,82.520,62.012
1578401999.792,69.336,32.715,43.945,75.684,40.039
1578401999.796,69.336,24.902,60.059,63.965,36.621
1578401999.800,60.547,10.742,50.781,58.594,61.523
1578401999.804,60.547,14.648,44.922,69.824,101.562
1578401999.808,74.707,37.109,41.504,82.520,39.551
1578401999.812,71.289,34.180,21.484,63.965,7.324
1578401999.816,76.172,35.645,33.203,58.594,23.438
1578401999.820,75.195,40.039,46.387,66.895,51.270
1578401999.823,60.059,26.367,37.598,63.965,45.410
1578401999.827,54.688,25.391,25.879,59.082,44.434
1578401999.831,55.176,33.691,22.949,55.664,68.359
1578401999.835,60.547,39.551,38.086,56.152,4.395
1578401999.839,67.871,44.922,38.086,58.105,-21.973
1578401999.843,57.129,41.504,19.043,51.270,-17.578
1578401999.847,43.457,37.598,22.949,35.645,33.203
1578401999.851,42.969,31.738,34.180,25.391,74.219
1578401999.855,47.852,33.203,38.574,28.809,-23.438
1578401999.859,45.898,24.902,39.062,31.250,-13.184
1578401999.862,45.898,26.367,42.480,36.133,64.941
1578401999.866,51.270,41.504,41.504,49.805,90.820
1578401999.870,50.781,35.645,41.504,52.734,80.566
1578401999.874,56.152,40.527,48.828,51.758,36.133
1578401999.878,64.941,54.688,51.270,56.641,-2.930
1578401999.882,55.176,41.504,39.062,47.852,-17.578
1578401999.886,47.363,30.273,28.809,38.574,19.043
1578401999.890,60.059,41.016,32.715,47.852,62.012
1578401999.894,52.734,36.621,31.250,42.969,9.766
1578401999.898,48.340,30.273,35.645,37.109,11.230
1578401999.902,57.617,39.551,32.227,54.199,22.461
1578401999.905,52.734,38.574,23.438,59.570,25.879
1578401999.909,56.152,42.480,43.457,59.570,58.105
1578401999.913,59.082,49.316,49.316,56.641,63.477
1578401999.917,59.082,41.504,37.109,54.688,39.062
1578401999.921,53.711,35.156,48.340,55.176,35.645
1578401999.925,42.969,32.715,43.945,47.363,49.316
1578401999.929,38.086,35.156,32.715,34.668,25.879
1578401999.933,44.434,35.645,34.668,31.738,63.477
1578401999.937,48.340,42.480,40.039,38.086,69.336
1578401999.941,39.062,32.227,35.156,35.156,34.180
1578401999.945,40.039,31.250,37.109,40.527,58.105
1578401999.948,39.062,44.434,48.340,51.758,70.312
1578401999.952,38.086,38.086,44.434,46.875,50.781
1578401999.956,49.316,37.598,32.227,41.504,59.082
1578401999.960,50.781,43.457,33.691,48.340,40.527
1578401999.964,41.504,37.598,32.227,49.805,27.344
1578401999.968,46.875,38.086,23.438,48.828,15.137
1578401999.972,51.270,37.109,24.414,42.480,52.246
1578401999.976,60.059,51.758,48.340,48.828,22.461
1578401999.980,64.453,61.523,50.293,55.664,-33.691
1578401999.984,45.410,42.480,30.762,41.504,7.324
1578401999.987,41.504,36.621,41.016,41.016,96.191
1578401999.991,51.270,46.875,45.410,50.293,74.219
1578401999.995,49.805,38.086,43.945,42.969,-9.766
1578401999.999,38.086,22.461,37.598,33.203,57.129
1578402000.003,36.133,25.879,39.062,43.457,75.684
1578402000.007,53.223,41.504,50.293,61.035,65.430
1578402000.011,48.340,40.527,30.273,44.922,40.527
1578402000.015,41.504,32.715,19.043,32.715,-4.395
1578402000.019,51.758,35.645,25.391,41.992,9.766
1578402000.023,60.059,44.922,35.156,55.664,44.434
1578402000.027,55.176,52.246,47.363,61.523,83.008
1578402000.030,39.062,43.457,45.898,39.551,57.617
1578402000.034,28.809,35.156,41.504,18.555,41.992
1578402000.038,39.551,40.527,42.480,29.785,66.406
1578402000.042,40.527,38.574,42.969,41.992,94.238
1578402000.046,44.434,39.551,40.527,43.945,73.730
1578402000.050,52.734,46.387,37.109,46.875,32.227
1578402000.054,59.082,48.828,38.086,48.340,20.996
1578402000.058,63.965,42.480,36.133,44.922,2.441
1578402000.062,58.594,37.598,38.086,42.480,11.230
1578402000.066,52.246,46.387,37.109,40.527,14.648
1578402000.070,50.781,46.875,37.109,39.062,29.785
1578402000.073,65.430,50.293,41.016,52.246,67.871
1578402000.077,62.012,38.086,27.832,43.945,42.480
1578402000.081,47.363,27.832,21.484,34.180,42.969
1578402000.085,44.922,44.434,32.227,45.410,50.781
1578402000.089,41.016,44.434,41.992,46.875,50.293
1578402000.093,43.457,33.203,37.598,37.598,-10.254
1578402000.097,47.363,33.203,40.527,35.645,8.789
1578402000.101,49.316,40.039,57.617,44.434,58.594
1578402000.105,44.434,37.598,54.688,41.504,10.254
1578402000.109,45.410,37.598,42.480,44.434,18.066
1578402000.112,58.594,39.062,50.781,49.316,-2.441
1578402000.116,62.500,37.598,39.062,40.039,49.316
1578402000.120,44.434,27.344,12.695,22.461,62.012
1578402000.124,42.480,28.809,29.297,32.227,-1.953
1578402000.128,67.871,57.129,54.199,62.500,12.207
1578402000.132,66.895,54.688,45.410,55.664,19.043
1578402000.136,50.293,29.297,38.086,32.227,19.531
1578402000.140,50.293,32.715,37.598,30.762,8.301
1578402000.144,56.152,39.062,43.457,46.875,-5.859
1578402000.148,51.758,37.598,50.781,51.758,50.293
1578402000.152,45.898,35.645,32.715,41.016,50.293
1578402000.155,53.223,43.945,19.043,40.039,18.066
1578402000.159,47.363,52.246,30.762,41.504,73.730
1578402000.163,52.734,57.617,58.594,54.688,121.094
1578402000.167,65.918,54.688,70.312,70.312,96.680
1578402000.171,58.594,42.969,56.641,60.547,41.992
1578402000.175,54.199,43.945,47.852,46.875,27.344
1578402000.179,42.480,29.785,33.203,30.762,17.090
1578402000.183,46.387,24.902,24.414,32.227,27.344
1578402000.187,54.688,44.922,39.551,48.828,38.086
1578402000.191,41.992,49.805,44.922,37.598,0.000
1578402000.195,41.992,49.805,48.340,34.180,5.859
1578402000.198,44.922,38.086,42.480,31.738,36.621
1578402000.202,41.016,39.551,52.734,30.762,35.645
1578402000.206,44.922,38.574,50.293,54.688,54.199
1578402000.210,54.199,23.438,28.320,68.848,56.152
1578402000.214,28.809,23.438,35.156,29.297,35.645
1578402000.218,-2.441,32.227,49.316,-22.949,-1.465
1578402000.222,-8.789,44.434,57.617,-25.879,-54.688
1578402000.226,-4.395,61.523,58.594,-7.812,-47.852
1578402000.230,-26.367,55.176,47.363,-32.715,-5.859
1578402000.234,-51.758,38.574,35.645,-66.406,-38.574
1578402000.237,-64.453,49.316,55.664,-79.590,-13.184
1578402000.241,-55.176,61.523,81.055,-62.012,32.227
1578402000.245,-72.266,59.082,65.918,-70.312,39.551
1578402000.249,-107.422,37.109,36.621,-97.168,-3.906
1578402000.253,-107.422,39.551,39.551,-101.562,2.441
1578402000.257,-115.234,45.410,44.434,-110.840,27.832
1578402000.261,-101.562,28.320,41.992,-93.750,46.387
1578402000.265,-78.613,42.480,55.176,-73.730,93.750
1578402000.269,-61.035,56.641,56.641,-56.641,54.199
1578402000.273,-41.992,46.387,46.387,-45.898,28.809
1578402000.277,-34.668,41.016,42.969,-49.805,70.801
1578402000.280,-19.043,57.617,42.480,-31.250,60.059
1578402000.284,-1.953,55.664,43.945,-3.906,19.043
1578402000.288,-22.461,21.973,29.297,-22.949,68.359
1578402000.292,-34.180,22.949,20.996,-35.645,31.250
1578402000.296,-9.277,47.852,21.484,-18.555,1.465
1578402000.300,25.879,53.711,37.109,12.207,28.809
1578402000.304,40.527,48.828,46.387,35.156,44.922
1578402000.308,39.062,55.664,46.875,42.480,32.715
1578402000.312,50.781,66.406,61.035,52.734,35.645
1578402000.316,38.086,31.738,42.969,25.879,30.762
1578402000.320,20.020,5.371,27.344,2.441,36.133
1578402000.323,27.832,30.273,34.668,15.625,55.664
1578402000.327,43.945,54.199,48.340,41.016,74.219
1578402000.331,67.871,67.871,64.941,62.988,99.609
1578402000.335,64.453,61.523,46.875,51.270,43.945
1578402000.339,41.504,42.480,24.414,32.715,-9.277
1578402000.343,37.109,39.551,23.926,33.691,-3.418
1578402000.347,38.574,37.109,35.645,38.574,5.371
1578402000.351,28.809,29.297,42.969,33.691,41.504
1578402000.355,28.809,23.438,36.621,30.762,12.207
1578402000.359,42.480,31.738,36.621,35.156,-58.594
1578402000.362,63.477,60.547,56.152,51.758,-43.457
1578402000.366,71.289,61.523,58.105,67.871,5.859
1578402000.370,41.992,32.227,20.020,38.086,39.551
1578402000.374,45.410,37.109,20.996,34.668,-19.043
1578402000.378,62.988,54.688,47.852,50.293,-16.113
1578402000.382,48.340,42.480,42.969,35.156,57.129
1578402000.386,35.156,34.180,30.273,30.273,13.184
1578402000.390,49.805,44.434,37.598,46.387,4.395
1578402000.394,47.852,37.109,28.320,35.645,54.688
1578402000.398,40.527,33.691,24.414,17.090,24.902
1578402000.402,45.410,48.340,44.922,31.250,34.180
1578402000.405,55.664,62.500,56.152,58.105,77.148
1578402000.409,51.270,44.922,45.898,52.246,43.945
1578402000.413,32.227,30.762,32.227,27.832,6.836
1578402000.417,34.180,43.457,39.551,29.785,56.641
1578402000.421,48.340,34.180,34.668,42.969,47.852
1578402000.425,49.805,37.109,35.156,56.641,-5.371
1578402000.429,36.621,57.129,43.457,51.270,-9.766
1578402000.433,22.461,45.410,40.039,28.809,34.180
1578402000.437,25.879,29.297,38.086,19.043,35.156
1578402000.441,53.223,48.828,49.316,38.086,4.883
1578402000.445,53.223,62.012,42.480,52.734,52.246
1578402000.448,41.016,52.246,30.273,56.152,50.781
1578402000.452,71.777,58.105,46.387,73.242,56.641
1578402000.456,74.219,68.848,50.293,49.805,60.547
1578402000.460,32.715,54.688,33.691,9.277,92.773
1578402000.464,21.973,35.645,33.203,20.020,92.773
1578402000.468,34.180,41.016,36.621,37.109,46.387
1578402000.472,40.039,40.527,31.250,39.551,52.734
1578402000.476,37.109,33.203,30.273,29.785,74.707
1578402000.480,50.781,57.129,49.805,41.504,93.262
1578402000.484,56.641,62.500,46.387,60.059,71.777
1578402000.487,45.410,53.223,23.438,49.316,41.016
1578402000.491,32.227,48.828,31.250,35.156,-3.906
1578402000.495,11.230,22.949,11.719,8.789,5.371
1578402000.499,23.926,24.902,9.277,10.742,-25.879
1578402000.503,34.668,41.992,36.133,30.762,41.504
1578402000.507,33.691,47.363,48.828,50.293,81.055
1578402000.511,40.527,46.875,51.758,51.270,-2.930
1578402000.515,53.223,48.828,47.363,43.457,2.930
1578402000.519,78.613,67.383,71.777,67.383,16.602
1578402000.523,65.430,65.918,64.453,59.082,16.113
1578402000.527,34.668,41.992,16.602,37.598,61.523
1578402000.530,41.992,35.156,16.602,46.875,77.148
1578402000.534,48.828,32.715,29.785,42.480,31.250
1578402000.538,28.320,26.855,16.113,16.602,-19.531
1578402000.542,27.832,33.203,27.344,21.484,2.441
1578402000.546,33.203,34.180,48.340,31.738,45.898
1578402000.550,46.387,49.805,51.270,43.945,21.973
1578402000.554,53.711,48.340,38.086,47.852,74.219
1578402000.558,33.203,27.344,31.250,25.879,106.934
1578402000.562,42.969,36.621,37.109,42.969,60.059
1578402000.566,44.434,38.574,21.484,53.223,69.824
1578402000.570,33.691,38.086,20.508,38.086,88.379
1578402000.573,38.086,41.504,40.039,35.156,108.398
1578402000.577,49.805,41.992,56.641,45.410,90.332
1578402000.581,59.570,44.434,45.410,54.199,39.551
1578402000.585,52.734,47.852,39.062,59.082,-29.785
1578402000.589,20.996,26.855,34.668,43.945,-4.883
1578402000.593,19.043,28.809,20.996,23.438,25.879
1578402000.597,31.250,45.898,26.855,17.090,-1.465
1578402000.601,29.297,31.250,36.133,19.531,-42.969
1578402000.605,33.203,30.273,39.551,32.227,12.695
1578402000.609,41.504,45.410,45.898,48.340,70.801
1578402000.612,62.012,54.199,46.387,59.082,8.789
1578402000.616,58.105,43.457,41.016,45.898,5.859
1578402000.620,28.809,39.062,51.270,20.020,21.484
1578402000.624,13.672,36.621,51.270,15.625,51.758
1578402000.628,15.137,22.949,35.645,26.855,56.152
1578402000.632,21.484,24.414,29.785,28.809,65.430
1578402000.636,30.762,37.109,31.738,26.855,96.680
1578402000.640,45.410,48.340,44.434,42.969,49.805
1578402000.644,54.688,49.805,38.574,61.523,6.348
1578402000.648,69.824,62.988,45.898,74.707,39.551
1578402000.652,56.152,46.875,43.457,57.129,44.434
1578402000.655,34.668,13.184,11.230,28.809,45.410
1578402000.659,37.598,25.391,8.301,36.133,41.016
1578402000.663,49.316,44.434,38.574,60.059,2.930
1578402000.667,48.340,38.086,53.223,53.223,47.852
1578402000.671,37.598,32.715,36.133,38.086,19.531
1578402000.675,42.480,41.504,33.203,44.922,-5.859
1578402000.679,41.504,34.180,35.156,39.551,39.062
1578402000.683,56.152,38.574,40.039,48.828,30.762
1578402000.687,63.477,51.758,60.059,66.895,11.230
1578402000.691,42.969,42.969,51.270,55.664,31.250
1578402000.695,41.016,38.574,31.738,38.086,3.418
1578402000.698,47.363,27.344,27.344,31.738,-20.020
1578402000.702,41.016,23.926,23.926,30.762,10.742
1578402000.706,41.504,41.992,29.785,44.434,13.184
1578402000.710,51.270,45.410,46.875,55.664,3.906
1578402000.714,49.316,38.086,44.434,41.992,38.086
1578402000.718,49.805,34.180,38.086,39.062,46.387
1578402000.722,42.969,28.809,41.504,37.598,-4.883
1578402000.726,50.293,33.203,57.617,47.363,8.301
1578402000.730,65.430,47.363,57.129,60.547,40.527
1578402000.734,53.223,39.062,29.297,45.898,27.832
1578402000.737,42.480,41.016,21.484,29.785,13.184
1578402000.741,40.039,52.246,35.645,31.738,26.367
1578402000.745,43.457,46.875,41.016,48.828,87.891
1578402000.749,42.480,45.898,33.203,53.223,50.293
1578402000.753,31.738,41.992,36.133,34.180,52.734
1578402000.757,30.273,32.715,36.133,28.320,85.449
1578402000.761,41.504,30.762,38.574,41.992,62.012
1578402000.765,40.527,34.668,45.410,52.246,25.879
1578402000.769,35.645,37.109,34.668,51.758,13.672
1578402000.773,43.945,41.992,28.320,36.621,15.137
1578402000.777,50.781,39.062,40.527,33.203,28.320
1578402000.780,42.480,29.785,40.527,37.598,66.895
1578402000.784,32.715,37.109,30.762,29.785,49.805
1578402000.788,30.273,46.875,32.227,24.902,37.109
1578402000.792,47.852,57.129,38.086,39.551,57.129
1578402000.796,58.594,52.734,30.762,39.551,47.363
1578402000.800,51.758,33.691,33.691,27.344,13.184
1578402000.804,53.223,30.762,24.902,36.621,-6.348
1578402000.808,59.570,48.340,19.531,46.875,26.855
1578402000.812,64.941,62.988,45.410,56.641,29.785
1578402000.816,52.246,56.152,49.805,38.574,15.625
1578402000.820,53.223,51.758,52.734,31.738,4.883
1578402000.823,57.617,39.062,42.480,56.641,-34.668
1578402000.827,41.504,21.484,29.785,50.781,-2.930
1578402000.831,34.180,38.086,28.809,34.668,18.555
1578402000.835,41.016,51.758,38.086,35.645,22.461
1578402000.839,38.574,39.551,36.621,29.785,15.137
1578402000.843,32.227,31.250,34.180,30.762,20.508
1578402000.847,30.762,42.480,29.785,37.109,44.922
1578402000.851,37.598,48.340,30.762,36.133,62.012
1578402000.855,50.293,46.387,45.898,39.062,47.363
1578402000.859,45.410,40.039,33.691,26.855,60.059
1578402000.862,50.293,46.875,49.805,31.738,77.637
1578402000.866,63.477,61.523,65.430,53.223,27.344
1578402000.870,47.852,41.992,34.180,43.457,68.359
1578402000.874,33.691,25.879,17.578,25.391,111.816
1578402000.878,52.734,48.340,37.109,43.945,55.176
1578402000.882,55.176,52.734,42.480,50.293,43.945
1578402000.886,31.250,37.109,37.109,33.203,68.359
1578402000.890,30.273,30.762,30.762,35.156,62.988
1578402000.894,37.598,35.645,29.785,30.762,38.574
1578402000.898,41.016,50.781,45.410,25.391,22.949
1578402000.902,38.086,43.945,44.434,30.273,38.086
1578402000.905,34.180,40.527,38.574,40.527,45.898
1578402000.909,28.809,35.645,36.621,41.504,29.297
1578402000.913,24.902,25.391,36.621,36.133,18.555
1578402000.917,36.133,36.133,51.270,36.133,48.340
1578402000.921,36.133,45.898,49.316,33.691,98.633
1578402000.925,18.066,45.410,39.062,29.785,52.734
1578402000.929,20.020,33.203,44.434,39.551,80.078
1578402000.933,25.391,23.926,41.016,37.109,41.504
1578402000.937,37.598,41.992,47.852,39.062,-27.832
1578402000.941,52.246,49.316,56.641,51.270,22.461
1578402000.945,43.945,43.457,33.691,50.293,18.555
1578402000.948,46.875,45.898,31.738,61.523,51.758
1578402000.952,53.223,46.387,41.016,61.035,83.496
1578402000.956,44.922,42.969,46.387,44.434,1.953
1578402000.960,40.527,33.203,47.852,29.785,30.273
1578402000.964,35.156,35.156,35.645,23.926,111.328
1578402000.968,38.086,46.387,31.738,37.109,73.730
1578402000.972,40.039,45.410,35.645,39.062,29.297
1578402000.976,26.855,35.645,46.875,21.973,38.574
1578402000.980,25.879,28.320,39.551,11.230,23.926
1578402000.984,32.227,25.391,26.855,21.973,4.395
1578402000.987,26.855,36.133,38.574,34.180,-8.301
1578402000.991,32.715,55.176,58.105,45.410,-3.418
1578402000.995,41.016,53.223,47.852,41.016,1.953
1578402000.999,33.691,41.504,25.879,25.391,-19.043
1578402001.003,17.578,27.344,21.484,16.602,-10.254
1578402001.007,35.156,34.668,42.480,36.621,36.133
1578402001.011,53.223,51.758,49.316,46.875,68.359
1578402001.015,29.297,31.250,26.367,18.555,27.832
1578402001.019,32.715,29.297,21.484,18.555,47.363
1578402001.023,44.434,31.250,34.180,31.250,42.969
1578402001.027,54.688,41.992,61.035,54.199,14.160
1578402001.030,59.082,59.082,51.758,62.012,56.641
1578402001.034,41.992,47.363,30.762,35.645,62.012
1578402001.038,36.621,35.156,34.180,23.438,9.766
1578402001.042,38.574,37.109,36.621,28.809,0.000
1578402001.046,33.691,29.297,35.645,39.062,18.066
1578402001.050,39.062,25.879,29.297,55.664,42.480
1578402001.054,50.293,35.645,26.367,54.688,71.777
1578402001.058,42.480,46.387,39.551,27.832,2.930
1578402001.062,22.949,49.805,41.016,9.277,36.621
1578402001.066,23.438,48.828,49.316,23.926,43.457
1578402001.070,25.879,42.480,51.758,33.691,35.156
1578402001.073,30.762,42.480,41.016,27.344,88.379
1578402001.077,45.410,49.316,39.551,29.297,90.820
1578402001.081,51.758,45.410,35.645,32.715,20.508
