timestamps,TP9,AF7,AF8,TP10,Right AUX
1578400661.855,48.340,46.875,45.410,61.035,34.668
1578400661.859,43.945,42.969,43.457,51.270,35.156
1578400661.862,46.387,46.875,41.504,42.969,55.664
1578400661.866,50.293,46.387,41.992,43.457,84.961
1578400661.870,44.922,41.504,40.527,46.875,81.055
1578400661.874,35.645,42.969,39.551,49.805,76.660
1578400661.878,36.133,39.551,40.527,48.828,17.090
1578400661.882,46.387,38.574,45.898,45.898,4.395
1578400661.886,51.270,41.992,48.340,41.504,38.086
1578400661.890,42.969,43.945,45.898,45.898,62.988
1578400661.894,35.645,42.969,44.922,54.199,41.992
1578400661.898,34.180,40.527,43.945,44.922,28.809
1578400661.902,37.109,40.527,34.668,34.668,48.828
1578400661.905,42.480,37.598,33.203,38.086,18.066
1578400661.909,44.434,36.621,39.062,43.457,10.742
1578400661.913,41.992,41.992,35.156,44.922,-3.418
1578400661.917,39.551,37.109,34.180,41.016,14.160
1578400661.921,45.898,39.551,36.621,38.574,12.207
1578400661.925,48.340,41.992,33.203,33.691,-25.391
1578400661.929,46.875,35.645,35.645,38.086,-6.836
1578400661.933,42.480,39.551,41.016,43.457,9.277
1578400661.937,37.109,40.527,39.062,37.598,18.555
1578400661.941,40.039,41.504,36.621,32.715,17.578
1578400661.945,48.828,43.945,35.645,35.645,37.598
1578400661.948,45.898,43.457,41.016,44.434,55.664
1578400661.952,38.574,44.922,43.945,45.898,35.645
1578400661.956,32.227,36.133,41.504,40.527,31.250
1578400661.960,32.715,40.039,43.945,36.621,17.578
1578400661.964,45.410,45.898,45.898,40.527,-12.207
1578400661.968,45.898,41.016,41.504,44.922,-3.418
1578400661.972,37.598,40.527,41.504,45.898,46.387
1578400661.976,31.738,41.504,41.504,40.527,69.336
1578400661.980,31.250,38.086,38.574,31.738,24.414
1578400661.984,39.551,41.504,37.598,31.250,39.062
1578400661.987,40.527,45.410,36.133,34.668,74.219
1578400661.991,35.645,45.898,35.645,41.016,67.383
1578400661.995,28.320,47.363,34.180,38.086,72.266
1578400661.999,27.832,43.457,39.551,30.762,70.312
1578400662.003,35.645,40.039,39.062,31.738,65.918
1578400662.007,35.156,40.527,34.668,35.645,79.590
1578400662.011,27.344,43.457,38.574,38.086,46.387
1578400662.015,27.344,45.410,41.504,38.574,7.324
1578400662.019,33.203,46.387,45.410,34.180,35.645
1578400662.023,36.621,42.480,44.434,29.785,55.664
1578400662.027,44.922,39.551,40.527,33.203,23.926
1578400662.030,42.969,36.133,36.621,38.574,-1.465
1578400662.034,36.621,38.086,32.715,43.945,-10.742
1578400662.038,39.551,41.504,34.668,41.504,20.020
1578400662.042,46.875,43.457,37.598,37.109,24.902
1578400662.046,52.246,47.852,33.691,43.945,9.766
1578400662.050,44.434,47.363,33.691,46.387,13.672
1578400662.054,31.250,50.293,37.109,38.086,-13.184
1578400662.058,33.691,50.781,38.574,32.227,-13.672
1578400662.062,44.434,48.828,41.504,30.762,-1.465
1578400662.066,39.551,51.270,41.016,25.879,5.859
1578400662.070,36.621,52.734,36.621,36.133,59.570
1578400662.073,32.715,44.434,30.762,29.785,56.152
1578400662.077,29.785,39.062,28.809,12.695,44.922
1578400662.081,31.250,42.969,28.809,14.160,62.988
1578400662.085,30.273,37.109,25.879,17.578,70.801
1578400662.089,37.598,38.086,29.785,29.785,65.430
1578400662.093,29.297,41.992,31.250,31.738,40.039
1578400662.097,24.902,36.133,27.344,24.414,9.766
1578400662.101,39.551,39.062,24.414,22.949,21.973
1578400662.105,47.363,47.852,23.438,24.414,-35.156
1578400662.109,44.434,52.246,29.297,32.227,-20.508
1578400662.112,37.598,45.410,30.273,34.180,60.547
1578400662.116,31.250,35.645,22.461,29.785,37.109
1578400662.120,37.109,37.109,23.926,25.879,79.102
1578400662.124,43.457,44.434,32.227,23.438,39.551
1578400662.128,40.039,37.598,29.297,28.809,16.602
1578400662.132,32.715,34.180,22.949,35.156,65.430
1578400662.136,28.320,43.457,28.320,32.715,25.879
1578400662.140,32.715,43.945,29.785,25.391,3.418
1578400662.144,38.574,37.109,25.391,27.832,38.086
1578400662.148,41.504,38.574,26.367,37.598,40.527
1578400662.152,34.180,43.457,36.621,40.039,27.344
1578400662.155,32.715,43.945,47.363,40.527,36.133
1578400662.159,39.062,44.922,39.551,32.227,29.785
1578400662.163,48.828,49.805,35.645,29.785,76.660
1578400662.167,49.805,48.340,37.109,31.250,77.148
1578400662.171,42.969,41.992,28.320,29.297,16.113
1578400662.175,33.203,37.598,31.738,27.344,20.996
1578400662.179,30.762,41.992,38.574,22.949,-5.371
1578400662.183,39.551,44.434,31.250,21.973,11.230
1578400662.187,39.062,42.969,30.273,30.762,34.668
1578400662.191,30.762,42.969,36.621,37.598,36.621
1578400662.195,25.879,38.086,34.668,31.738,71.289
1578400662.198,28.809,36.621,33.691,28.320,38.086
1578400662.202,38.574,42.480,38.086,30.273,28.809
1578400662.206,43.457,39.551,37.598,34.668,35.645
1578400662.210,33.203,34.668,31.250,33.691,31.250
1578400662.214,24.414,42.969,34.180,29.785,43.945
1578400662.218,30.273,44.434,38.574,33.203,28.809
1578400662.222,33.691,39.062,35.156,33.691,8.301
1578400662.226,35.645,35.156,37.109,34.668,24.414
1578400662.230,36.133,36.133,41.016,41.504,59.082
1578400662.234,29.785,34.668,39.551,41.504,59.570
1578400662.237,26.855,25.879,41.504,33.203,7.324
1578400662.241,34.668,32.715,39.062,33.203,1.465
1578400662.245,45.410,43.457,35.645,39.551,-12.207
1578400662.249,41.016,40.527,34.180,42.969,-4.395
1578400662.253,30.273,39.551,30.762,43.457,18.066
1578400662.257,32.227,43.457,35.645,38.574,88.867
1578400662.261,38.574,49.805,41.504,33.203,96.680
1578400662.265,41.504,49.316,37.109,35.645,62.988
1578400662.269,42.969,42.480,37.598,43.457,88.867
1578400662.273,36.621,36.621,41.016,46.387,45.410
1578400662.277,37.109,32.227,37.598,46.875,-13.672
1578400662.280,44.434,35.645,32.715,39.551,-22.949
1578400662.284,50.781,41.992,34.180,36.621,-1.953
1578400662.288,45.898,41.504,36.133,41.504,18.066
1578400662.292,35.645,40.527,35.645,44.434,49.805
1578400662.296,48.340,43.945,35.645,50.293,41.992
1578400662.300,54.199,40.039,40.039,45.898,46.875
1578400662.304,44.922,34.180,48.340,38.086,79.590
1578400662.308,41.992,39.551,45.410,36.621,46.875
1578400662.312,36.133,38.086,44.434,38.574,36.621
1578400662.316,27.344,28.809,45.898,38.086,79.102
1578400662.320,31.738,31.250,40.527,32.227,94.727
1578400662.323,47.363,36.621,39.551,35.645,87.402
1578400662.327,41.992,40.039,38.574,39.062,83.008
1578400662.331,28.320,36.621,30.273,33.691,50.781
1578400662.335,26.855,26.367,25.391,27.832,18.066
1578400662.339,33.203,35.156,30.762,26.855,16.602
1578400662.343,44.434,45.898,35.156,31.738,3.418
1578400662.347,50.293,39.062,31.250,36.621,-8.301
1578400662.351,43.945,37.109,28.320,35.156,36.133
1578400662.355,34.668,41.016,28.809,35.156,86.426
1578400662.359,41.016,39.551,26.855,34.668,49.805
1578400662.362,53.223,33.203,28.320,33.203,37.598
1578400662.366,53.223,27.832,34.180,39.062,57.129
1578400662.370,41.992,32.227,35.156,43.457,84.473
1578400662.374,32.715,40.527,39.551,41.016,83.496
1578400662.378,34.668,45.410,42.969,31.250,29.297
1578400662.382,44.922,43.945,42.969,32.715,8.301
1578400662.386,50.781,40.039,43.945,44.922,47.363
1578400662.390,41.504,45.410,40.527,45.410,66.895
1578400662.394,34.180,47.363,30.273,43.457,20.508
1578400662.398,36.133,37.598,25.391,38.574,-12.207
1578400662.402,41.992,36.621,31.250,37.598,40.039
1578400662.405,49.316,40.039,37.598,42.969,58.105
1578400662.409,44.434,36.133,38.086,44.922,78.125
1578400662.413,36.133,36.621,30.762,45.410,82.031
1578400662.417,32.715,33.203,31.250,39.062,25.391
1578400662.421,36.621,30.762,36.133,32.227,28.320
1578400662.425,40.039,37.109,34.180,34.180,40.527
1578400662.429,29.785,37.598,31.738,36.133,41.016
1578400662.433,22.949,37.598,28.320,32.227,28.320
1578400662.437,20.996,38.574,25.879,30.762,-1.953
1578400662.441,27.832,40.527,30.273,33.691,9.766
1578400662.445,40.039,41.992,33.691,34.668,24.414
1578400662.448,40.527,38.086,29.785,38.086,62.500
1578400662.452,36.133,28.320,29.785,41.016,113.281
1578400662.456,33.691,25.879,33.691,34.180,91.797
1578400662.460,42.480,38.574,32.715,36.133,11.230
1578400662.464,48.828,43.457,28.809,43.457,-23.438
1578400662.468,45.898,37.109,30.762,48.340,-23.926
1578400662.472,39.551,29.785,34.668,49.805,0.000
1578400662.476,30.273,29.785,35.156,42.969,2.441
1578400662.480,30.273,32.227,37.598,37.598,-2.441
1578400662.484,39.062,34.668,37.109,35.156,6.836
1578400662.487,39.062,38.574,38.086,39.551,47.363
1578400662.491,27.832,34.180,38.086,38.574,82.520
1578400662.495,16.602,29.297,32.227,24.414,50.781
1578400662.499,18.066,32.715,34.668,20.020,90.820
1578400662.503,26.367,31.738,40.039,27.344,111.816
1578400662.507,32.715,32.715,39.551,33.691,21.484
1578400662.511,27.832,34.180,40.527,35.156,-0.488
1578400662.515,21.484,36.621,40.039,27.832,18.066
1578400662.519,31.250,38.086,36.133,25.879,36.621
1578400662.523,43.457,41.016,33.203,26.367,1.953
1578400662.527,53.223,44.922,29.785,31.738,35.156
1578400662.530,54.199,39.062,32.227,47.363,47.852
1578400662.534,35.156,34.180,41.504,41.504,-19.043
1578400662.538,24.414,35.645,40.039,25.879,-9.766
1578400662.542,29.785,35.156,35.156,21.484,7.812
1578400662.546,31.738,37.598,31.250,23.926,19.043
1578400662.550,32.227,39.062,31.250,36.133,11.719
1578400662.554,22.461,34.668,35.645,34.668,-6.836
1578400662.558,24.414,32.227,41.016,24.902,25.391
1578400662.562,40.527,35.645,41.504,27.832,56.641
1578400662.566,41.016,38.086,36.621,33.203,45.410
1578400662.570,38.574,40.039,36.621,36.621,95.215
1578400662.573,34.180,41.992,33.203,36.621,73.730
1578400662.577,33.691,40.527,35.156,32.715,5.371
1578400662.581,41.992,41.504,31.250,28.809,43.457
1578400662.585,46.875,39.551,26.367,26.855,27.344
1578400662.589,41.504,33.691,36.133,31.250,37.109
1578400662.593,29.297,28.320,43.945,38.086,54.688
1578400662.597,28.809,24.414,40.039,39.062,31.250
1578400662.601,36.621,27.344,28.320,33.203,12.695
1578400662.605,40.039,33.203,25.879,35.156,25.879
1578400662.609,41.992,37.109,31.738,46.387,71.777
1578400662.612,33.203,36.133,29.785,45.410,60.059
1578400662.616,22.461,36.133,25.391,36.133,68.848
1578400662.620,24.902,38.574,26.367,30.762,38.086
1578400662.624,34.668,40.039,33.691,29.785,30.273
1578400662.628,41.016,39.062,33.203,32.227,91.309
1578400662.632,32.715,40.039,28.809,36.621,75.684
1578400662.636,23.926,43.457,29.785,38.574,31.250
1578400662.640,28.809,42.969,33.691,34.668,18.066
1578400662.644,37.109,41.016,32.715,36.621,51.758
1578400662.648,43.457,41.992,30.762,42.480,54.199
1578400662.652,33.203,37.109,32.715,40.039,44.922
1578400662.655,24.414,37.598,41.016,37.598,57.617
1578400662.659,32.715,40.039,45.898,35.156,16.602
1578400662.663,35.645,32.715,42.969,28.320,45.410
1578400662.667,36.621,29.297,41.504,33.203,34.180
1578400662.671,34.180,33.203,45.898,41.504,-30.273
1578400662.675,25.879,35.156,48.340,37.598,19.531
1578400662.679,30.762,32.227,41.016,34.668,11.230
1578400662.683,36.621,30.762,38.086,34.668,-25.391
1578400662.687,38.574,36.621,34.668,34.668,-4.395
1578400662.691,36.621,39.062,33.691,35.156,35.645
1578400662.695,27.832,34.180,37.109,32.715,12.207
1578400662.698,33.203,36.621,37.598,34.668,20.996
1578400662.702,39.062,41.016,40.039,35.645,6.348
1578400662.706,35.645,37.109,39.062,39.551,-12.695
1578400662.710,26.855,32.715,36.133,40.039,-1.465
1578400662.714,21.484,33.203,40.039,34.180,15.625
1578400662.718,26.855,33.691,39.551,30.273,115.234
1578400662.722,34.668,31.250,35.156,26.855,116.211
1578400662.726,40.039,35.645,35.156,30.273,19.531
1578400662.730,37.109,42.969,35.645,36.133,34.180
1578400662.734,30.762,32.227,40.527,41.016,67.871
1578400662.737,22.461,26.855,50.781,27.832,62.988
1578400662.741,27.832,44.434,41.504,20.020,31.250
1578400662.745,33.691,50.293,37.109,28.809,-6.348
1578400662.749,23.438,41.504,36.621,27.832,-7.324
1578400662.753,20.508,38.086,33.691,29.297,64.941
1578400662.757,19.043,39.062,39.062,25.391,78.125
1578400662.761,30.273,44.434,39.062,29.297,74.707
1578400662.765,47.852,42.969,36.621,37.598,49.316
1578400662.769,44.922,43.945,31.738,38.086,-22.949
1578400662.773,35.645,44.434,33.691,44.434,-15.137
1578400662.777,36.621,41.992,33.203,41.504,49.805
1578400662.780,45.410,45.898,34.668,38.574,53.711
1578400662.784,53.711,46.875,35.156,41.992,100.098
1578400662.788,51.270,45.410,29.785,48.828,101.074
1578400662.792,44.434,42.969,33.203,53.711,56.641
1578400662.796,45.898,41.992,31.738,45.898,61.523
1578400662.800,54.199,44.922,33.203,39.062,67.383
1578400662.804,59.570,52.246,37.109,42.969,-0.488
1578400662.808,56.152,45.898,32.227,46.875,30.762
1578400662.812,40.039,43.945,30.762,41.504,54.688
1578400662.816,28.809,46.387,28.320,33.691,12.695
1578400662.820,37.598,46.387,33.691,38.086,34.180
1578400662.823,42.480,49.805,44.434,38.574,69.336
1578400662.827,35.156,46.875,37.598,34.668,63.965
1578400662.831,29.297,42.969,37.598,37.598,-5.371
1578400662.835,26.855,39.062,41.992,35.645,-20.020
1578400662.839,34.668,44.922,36.621,32.715,22.461
1578400662.843,48.340,45.410,29.785,34.668,15.137
1578400662.847,51.270,42.969,29.785,39.062,7.324
1578400662.851,41.992,43.457,34.180,45.898,24.414
1578400662.855,36.133,39.551,35.156,44.434,8.301
1578400662.859,35.156,40.527,36.621,34.668,-26.367
1578400662.862,40.527,43.457,36.621,32.227,2.441
1578400662.866,41.992,42.480,35.645,34.668,6.836
1578400662.870,37.598,40.527,35.645,35.156,20.996
1578400662.874,33.203,41.504,36.133,33.691,37.598
1578400662.878,28.809,42.480,32.715,30.273,73.730
1578400662.882,40.527,38.086,24.414,32.227,73.730
1578400662.886,45.898,38.574,25.879,34.180,39.551
1578400662.890,38.086,41.504,27.832,33.691,22.461
1578400662.894,30.273,36.133,27.832,33.691,-1.953
1578400662.898,30.273,30.762,31.738,27.344,-25.391
1578400662.902,33.203,35.156,28.809,22.949,-7.324
1578400662.905,36.133,37.109,30.273,31.250,48.340
1578400662.909,32.715,39.551,33.691,38.574,22.949
1578400662.913,22.949,41.992,32.715,38.574,7.812
1578400662.917,22.461,35.156,30.273,28.320,14.160
1578400662.921,34.180,35.156,29.785,24.414,40.527
1578400662.925,45.898,42.480,34.668,36.133,59.570
1578400662.929,36.133,40.039,39.551,36.133,12.207
1578400662.933,24.414,33.203,40.527,35.156,-17.578
1578400662.937,30.762,37.109,39.551,35.645,22.949
1578400662.941,41.016,37.109,39.062,34.180,4.883
1578400662.945,49.805,36.133,38.086,40.039,-2.441
1578400662.948,47.852,35.156,37.598,41.016,20.996
1578400662.952,34.180,31.250,36.133,31.738,21.484
1578400662.956,30.762,28.809,38.574,30.762,74.219
1578400662.960,37.598,26.367,41.504,29.297,118.652
1578400662.964,47.363,36.621,38.574,28.320,120.605
1578400662.968,45.898,42.480,36.133,39.062,74.707
1578400662.972,33.691,33.691,41.016,42.480,23.438
1578400662.976,29.785,34.180,37.598,39.551,8.301
1578400662.980,33.203,37.598,28.809,33.691,-36.133
1578400662.984,39.062,45.898,33.203,30.762,-27.344
1578400662.987,43.457,44.922,36.133,40.039,25.879
1578400662.991,41.992,30.762,33.691,48.828,49.316
1578400662.995,29.785,29.297,34.668,40.527,8.789
1578400662.999,18.555,31.250,32.715,23.438,7.812
1578400663.003,28.320,27.832,30.273,20.996,37.109
1578400663.007,34.180,30.273,34.180,25.879,25.391
1578400663.011,27.832,37.109,37.109,29.785,31.250
1578400663.015,22.461,39.551,39.551,29.297,60.059
1578400663.019,25.391,37.598,34.180,20.996,88.867
1578400663.023,30.762,35.156,28.809,22.461,54.199
1578400663.027,30.762,36.621,29.785,28.320,30.762
1578400663.030,23.926,38.086,28.320,31.738,61.035
1578400663.034,19.043,34.668,23.926,26.855,78.125
1578400663.038,24.902,32.227,27.832,21.973,55.176
1578400663.042,44.434,36.133,28.320,27.344,46.875
1578400663.046,53.711,42.480,21.484,32.227,69.336
1578400663.050,46.387,37.598,28.320,40.039,73.730
1578400663.054,38.574,35.156,32.715,45.410,84.473
1578400663.058,34.180,41.504,29.785,37.598,94.727
1578400663.062,40.527,43.945,30.762,33.203,112.305
1578400663.066,47.852,40.527,27.344,34.668,100.586
1578400663.070,42.480,41.016,28.809,40.527,34.180
1578400663.073,40.039,39.551,30.762,45.898,7.324
1578400663.077,45.410,36.133,29.297,44.434,66.895
1578400663.081,59.082,36.621,32.227,46.875,117.676
1578400663.085,61.035,37.598,35.645,50.293,71.289
1578400663.089,50.781,36.621,33.203,50.293,15.625
1578400663.093,40.527,30.273,33.203,50.293,43.457
1578400663.097,35.156,29.297,36.621,43.945,35.645
1578400663.101,41.992,36.621,38.086,41.992,-0.977
1578400663.105,50.293,38.574,39.062,50.293,32.227
1578400663.109,48.340,34.668,36.133,50.781,6.348
1578400663.112,39.062,38.086,32.715,41.992,12.695
1578400663.116,34.668,36.621,36.133,34.668,39.551
1578400663.120,38.574,37.109,41.992,34.668,-32.715
1578400663.124,40.527,41.992,36.621,35.645,15.137
1578400663.128,34.668,37.598,33.691,36.133,52.734
1578400663.132,26.367,31.250,37.598,35.156,-6.348
1578400663.136,24.902,35.645,39.551,29.785,-12.207
1578400663.140,34.668,42.480,39.062,26.367,0.977
1578400663.144,45.898,45.410,36.621,26.855,13.672
1578400663.148,49.316,51.270,37.598,37.598,4.395
1578400663.152,42.480,48.828,40.039,46.875,26.367
1578400663.155,31.738,43.945,37.109,39.062,53.223
1578400663.159,32.715,39.062,34.668,35.645,54.688
1578400663.163,38.086,32.227,40.039,40.039,18.555
1578400663.167,37.109,35.645,39.551,44.434,8.789
1578400663.171,33.691,39.062,39.062,49.316,55.664
1578400663.175,31.738,38.086,41.016,43.457,62.500
1578400663.179,33.691,36.621,32.715,31.738,24.414
1578400663.183,38.574,37.109,34.180,28.320,4.395
1578400663.187,42.480,42.969,38.086,33.691,60.059
1578400663.191,35.645,43.457,39.551,36.621,75.684
1578400663.195,27.344,38.574,40.039,33.691,15.137
1578400663.198,29.785,38.086,38.086,31.250,5.371
1578400663.202,36.133,42.480,37.109,24.414,21.973
1578400663.206,39.062,41.016,37.109,23.926,39.062
1578400663.210,34.668,37.109,38.086,28.809,47.363
1578400663.214,27.832,34.668,40.527,27.344,-28.320
1578400663.218,26.855,32.227,42.480,20.020,-33.691
1578400663.222,33.203,31.250,44.434,19.043,23.926
1578400663.226,31.738,34.180,37.598,21.973,64.453
1578400663.230,23.926,29.297,26.855,23.438,68.848
1578400663.234,23.926,27.832,32.227,30.273,34.180
1578400663.237,26.367,36.133,36.133,25.879,31.738
1578400663.241,34.180,39.551,40.039,21.973,55.176
1578400663.245,48.340,34.668,41.992,34.668,86.914
1578400663.249,38.574,28.809,33.691,36.133,95.703
1578400663.253,26.855,32.227,31.738,35.156,100.098
1578400663.257,28.320,38.086,35.156,34.668,63.477
1578400663.261,40.039,42.480,32.227,28.809,1.465
1578400663.265,51.270,38.086,33.691,32.715,27.832
1578400663.269,46.387,39.062,37.109,40.527,50.293
1578400663.273,42.480,45.410,40.527,45.898,33.203
1578400663.277,35.156,31.738,41.016,45.410,-6.836
1578400663.280,39.062,26.855,39.551,41.992,5.859
1578400663.284,49.805,41.504,41.504,41.504,102.051
1578400663.288,40.527,41.992,44.434,44.434,68.359
1578400663.292,29.785,37.598,44.922,37.598,21.484
1578400663.296,30.273,38.086,42.480,33.691,61.035
1578400663.300,38.086,44.922,40.039,36.133,40.527
1578400663.304,47.363,52.734,41.016,34.668,12.695
1578400663.308,43.945,49.316,43.457,35.645,27.344
1578400663.312,35.156,41.504,45.410,33.691,10.742
1578400663.316,29.785,40.039,43.945,27.344,1.953
1578400663.320,32.715,46.387,39.062,20.508,-13.672
1578400663.323,41.016,46.387,41.504,23.926,-34.180
1578400663.327,44.922,41.992,34.668,35.156,0.000
1578400663.331,40.039,40.527,24.902,35.645,34.180
1578400663.335,32.227,41.504,27.832,22.461,47.363
1578400663.339,27.832,45.898,25.879,6.836,65.918
1578400663.343,33.691,48.828,30.273,16.113,96.191
1578400663.347,36.621,46.875,33.691,30.273,42.480
1578400663.351,27.344,40.527,34.668,26.855,18.555
1578400663.355,26.367,37.109,37.109,27.832,102.051
1578400663.359,28.809,43.945,36.133,26.855,109.863
1578400663.362,35.156,43.945,39.551,30.273,61.523
1578400663.366,39.062,40.527,38.086,35.156,38.086
1578400663.370,31.250,38.574,37.109,32.227,29.785
1578400663.374,28.809,38.574,38.086,35.645,56.152
1578400663.378,32.715,36.133,38.574,34.180,21.484
1578400663.382,44.922,39.551,44.922,29.297,33.691
1578400663.386,51.758,41.992,43.945,37.598,40.527
1578400663.390,45.410,34.180,36.621,46.387,-2.441
1578400663.394,36.621,37.109,36.621,42.480,20.020
1578400663.398,35.156,37.598,39.062,35.645,12.207
1578400663.402,43.457,41.504,43.457,34.668,12.207
1578400663.405,52.734,46.875,41.016,36.621,38.086
1578400663.409,48.340,41.992,36.621,39.551,-1.953
1578400663.413,39.551,45.898,35.645,36.621,-43.457
1578400663.417,42.480,43.945,35.156,31.250,-18.555
1578400663.421,50.293,38.574,32.715,30.273,41.504
1578400663.425,53.223,40.039,29.785,28.320,16.113
1578400663.429,47.852,44.922,28.809,30.273,20.508
1578400663.433,35.156,43.945,33.203,32.227,51.758
1578400663.437,24.414,40.527,38.574,28.320,46.875
1578400663.441,33.691,38.086,39.551,26.855,75.684
1578400663.445,42.969,36.133,40.039,28.809,60.059
1578400663.448,38.574,32.715,39.062,34.668,30.273
1578400663.452,33.203,29.785,38.574,36.133,57.129
1578400663.456,31.738,38.086,38.574,35.156,88.867
1578400663.460,37.109,48.340,32.715,34.668,72.754
1578400663.464,43.945,53.711,32.227,38.086,47.363
1578400663.468,38.574,53.223,34.180,43.457,22.949
1578400663.472,25.879,43.457,32.715,37.109,8.301
1578400663.476,26.855,43.457,33.203,29.785,50.781
1578400663.480,33.691,44.922,38.574,29.785,35.645
1578400663.484,37.598,37.598,40.527,31.738,-18.555
1578400663.487,39.062,36.133,42.480,38.574,39.062
1578400663.491,36.133,33.691,45.898,47.363,35.156
1578400663.495,35.645,35.156,38.086,41.992,6.348
1578400663.499,42.969,40.527,37.109,35.645,-17.090
1578400663.503,53.223,42.480,38.086,31.738,-17.578
1578400663.507,50.293,41.504,28.320,29.297,49.805
1578400663.511,40.527,37.598,30.762,31.250,64.941
1578400663.515,38.086,31.250,39.062,31.738,27.832
1578400663.519,36.133,33.691,38.086,31.250,70.801
1578400663.523,39.062,38.574,32.227,32.227,54.199
1578400663.527,41.016,42.480,32.227,32.227,17.578
1578400663.530,37.598,42.480,42.480,32.715,47.363
1578400663.534,34.180,39.062,41.504,29.297,39.062
1578400663.538,41.016,39.551,37.598,30.762,20.020
1578400663.542,53.223,43.457,35.156,34.668,26.855
1578400663.546,51.270,43.457,32.227,36.133,84.961
1578400663.550,41.504,45.410,36.133,38.574,80.566
1578400663.554,37.109,42.480,33.203,38.086,27.344
1578400663.558,38.086,35.156,32.715,35.156,-13.672
1578400663.562,41.504,43.457,36.621,35.645,-15.625
1578400663.566,44.922,48.828,35.156,43.945,39.551
1578400663.570,39.551,41.504,33.691,45.410,64.453
1578400663.573,35.156,37.109,31.738,43.945,66.895
1578400663.577,41.992,35.156,29.785,45.410,61.035
1578400663.581,50.293,35.156,33.203,41.504,82.031
1578400663.585,51.270,31.250,40.527,41.504,41.992
1578400663.589,45.898,32.227,41.992,47.852,24.902
1578400663.593,38.086,34.180,37.598,47.363,30.273
1578400663.597,39.551,31.738,39.551,40.039,47.363
1578400663.601,49.805,37.598,40.039,37.598,8.789
1578400663.605,55.176,39.062,33.691,35.645,-20.020
1578400663.609,53.223,40.527,31.738,38.086,8.789
1578400663.612,42.969,37.598,32.227,41.992,18.066
1578400663.616,36.621,34.668,30.273,34.180,26.855
1578400663.620,41.016,40.527,26.855,30.762,9.766
1578400663.624,41.992,46.387,28.320,34.180,12.207
1578400663.628,31.250,39.551,33.203,36.621,30.762
1578400663.632,19.531,25.879,37.598,36.133,33.691
1578400663.636,22.461,25.391,42.969,36.133,-38.086
1578400663.640,31.250,38.086,43.457,32.715,-4.883
1578400663.644,37.109,39.062,38.086,32.715,9.766
1578400663.648,38.086,31.250,34.668,41.016,-26.367
1578400663.652,31.250,29.297,37.598,41.992,51.270
1578400663.655,28.320,33.203,37.598,39.062,56.152
1578400663.659,33.203,37.109,41.016,32.715,79.590
1578400663.663,42.480,37.598,48.340,36.133,110.840
1578400663.667,46.387,29.785,46.875,40.039,46.875
1578400663.671,35.645,18.555,38.086,35.645,16.113
1578400663.675,29.297,28.320,36.621,39.062,-49.805
1578400663.679,33.203,34.668,34.668,33.203,-11.719
1578400663.683,40.527,32.227,31.738,23.926,38.574
1578400663.687,44.434,39.062,34.180,34.668,5.859
1578400663.691,35.645,40.527,28.809,41.016,16.602
1578400663.695,28.320,39.551,32.715,32.715,37.109
1578400663.698,31.250,40.039,35.645,27.344,59.570
1578400663.702,35.156,40.039,34.668,29.785,-0.977
1578400663.706,31.250,33.691,36.133,30.762,0.000
1578400663.710,22.461,25.879,30.762,26.367,42.480
1578400663.714,20.020,32.715,25.391,24.414,52.734
1578400663.718,30.762,37.598,22.461,24.902,30.273
1578400663.722,39.062,29.785,31.250,23.438,41.016
1578400663.726,31.250,31.250,32.227,19.043,52.734
1578400663.730,26.855,33.691,24.902,20.508,24.414
1578400663.734,26.367,33.691,25.391,23.926,105.957
1578400663.737,17.578,33.691,33.203,19.531,100.098
1578400663.741,17.090,29.785,38.574,11.230,27.832
1578400663.745,21.484,33.203,35.645,16.113,45.898
1578400663.749,20.996,33.691,40.039,30.762,46.387
1578400663.753,19.531,33.691,42.480,32.715,20.508
1578400663.757,20.020,35.156,41.504,28.320,30.762
1578400663.761,25.391,32.715,41.992,29.297,57.129
1578400663.765,32.715,27.832,39.551,32.715,54.688
1578400663.769,32.715,24.414,40.527,45.898,-19.531
1578400663.773,30.762,23.438,47.852,51.270,35.156
1578400663.777,32.715,33.691,41.504,40.527,46.387
1578400663.780,44.922,41.016,38.086,38.574,44.922
1578400663.784,51.270,38.574,42.480,41.504,116.211
1578400663.788,41.504,37.598,43.457,41.016,53.223
1578400663.792,37.598,38.086,41.992,41.992,25.879
1578400663.796,39.551,38.574,38.086,35.645,26.855
1578400663.800,45.898,35.156,37.109,25.391,43.457
1578400663.804,57.129,36.133,42.969,27.344,18.555
1578400663.808,51.270,42.969,40.527,34.668,20.508
1578400663.812,40.527,42.969,35.156,40.039,41.992
1578400663.816,39.062,39.062,35.156,33.691,11.719
1578400663.820,40.039,40.039,32.227,22.461,35.156
1578400663.823,41.504,36.133,33.691,31.738,83.008
1578400663.827,44.922,34.668,37.109,41.504,83.008
1578400663.831,36.621,37.109,30.273,32.227,47.363
1578400663.835,31.738,27.344,29.785,30.273,40.527
1578400663.839,40.039,24.902,31.738,33.691,24.414
1578400663.843,45.410,31.250,30.762,36.621,5.371
1578400663.847,44.434,32.715,39.551,41.016,39.551
1578400663.851,36.621,36.621,41.016,41.504,41.992
1578400663.855,33.691,41.016,38.086,41.504,4.883
1578400663.859,39.551,40.039,37.109,37.598,9.277
1578400663.862,50.293,37.109,41.504,37.109,58.594
1578400663.866,45.410,29.785,37.109,36.133,78.613
1578400663.870,30.273,29.785,27.344,38.086,28.809
1578400663.874,21.484,31.738,30.762,35.645,-36.621
1578400663.878,25.879,30.273,37.109,31.250,-24.414
1578400663.882,37.598,34.668,40.527,33.691,17.090
1578400663.886,45.898,35.645,38.574,41.504,-4.883
1578400663.890,41.016,33.203,32.227,42.969,-21.973
1578400663.894,30.762,33.691,32.715,38.574,46.875
1578400663.898,31.738,32.715,35.156,33.691,-5.859
1578400663.902,38.086,37.598,36.621,34.668,-41.016
1578400663.905,37.109,47.363,39.551,35.156,48.828
1578400663.909,20.020,42.480,41.504,29.297,43.945
1578400663.913,12.695,37.109,36.621,28.320,12.695
1578400663.917,19.043,43.457,28.320,20.020,46.875
1578400663.921,28.320,48.340,26.855,11.230,33.203
1578400663.925,35.156,40.039,32.227,18.066,-19.531
1578400663.929,30.273,36.621,35.645,25.879,31.250
1578400663.933,24.414,32.715,31.738,26.855,49.805
1578400663.937,26.855,28.320,26.855,30.273,49.805
1578400663.941,33.691,37.598,30.762,33.691,68.359
1578400663.945,43.945,45.410,38.574,39.062,45.410
1578400663.948,42.480,42.480,37.598,41.504,42.969
1578400663.952,31.250,34.180,34.180,37.109,72.266
1578400663.956,22.949,29.297,33.691,31.738,50.781
1578400663.960,27.832,28.320,32.227,27.832,13.184
1578400663.964,35.645,28.320,29.297,31.250,-8.789
1578400663.968,30.273,27.344,25.391,35.645,6.348
1578400663.972,26.367,26.367,24.414,35.156,7.812
1578400663.976,32.715,34.668,28.320,37.109,19.043
1578400663.980,36.621,37.109,39.551,39.551,80.566
1578400663.984,33.691,40.527,44.434,33.203,46.387
1578400663.987,32.715,42.480,41.992,33.691,5.859
1578400663.991,29.785,37.598,41.504,40.039,24.902
1578400663.995,28.320,32.715,40.039,35.156,26.855
1578400663.999,34.180,36.133,39.551,22.461,53.223
1578400664.003,41.992,42.480,35.645,25.879,48.828
1578400664.007,46.387,43.457,32.715,38.574,26.855
1578400664.011,33.691,40.527,34.668,38.574,70.312
1578400664.015,26.367,31.738,34.180,37.109,97.656
1578400664.019,33.691,28.809,31.738,34.668,75.195
1578400664.023,37.598,30.273,33.203,32.227,20.020
1578400664.027,37.598,31.738,34.668,41.016,55.664
1578400664.030,35.156,38.574,32.227,45.898,57.129
1578400664.034,30.762,43.457,30.273,41.504,55.664
1578400664.038,33.691,41.504,33.691,34.180,81.055
1578400664.042,44.922,40.039,37.109,32.715,60.059
1578400664.046,48.340,40.039,37.109,37.598,35.645
1578400664.050,41.992,37.109,35.645,39.551,37.598
1578400664.054,33.203,33.203,31.738,35.156,102.539
1578400664.058,38.086,28.320,30.273,30.273,112.305
1578400664.062,44.922,37.598,34.180,28.809,-5.371
1578400664.066,43.457,49.805,34.668,29.785,-53.223
1578400664.070,38.574,39.551,28.809,32.227,-2.441
1578400664.073,33.203,30.762,25.391,26.855,45.410
1578400664.077,38.574,34.668,34.180,25.391,59.082
1578400664.081,36.621,35.156,39.062,25.879,2.441
1578400664.085,37.598,34.180,29.785,27.832,-14.160
1578400664.089,38.086,33.203,27.832,31.738,45.898
1578400664.093,25.879,30.762,36.133,32.227,66.895
1578400664.097,27.344,33.203,40.527,29.297,52.246
1578400664.101,34.668,42.969,45.410,28.320,40.039
1578400664.105,43.457,53.223,44.434,34.668,19.043
1578400664.109,37.598,53.223,39.551,38.574,9.766
1578400664.112,25.879,43.457,39.062,37.109,20.996
1578400664.116,29.297,42.480,40.039,33.203,5.859
1578400664.120,41.016,40.527,41.992,31.250,-15.137
1578400664.124,51.758,40.527,44.922,38.086,41.016
1578400664.128,49.316,42.480,45.410,43.457,80.566
1578400664.132,39.551,37.109,47.363,41.016,60.059
1578400664.136,30.762,36.621,48.340,36.133,21.484
1578400664.140,33.203,43.457,42.480,31.738,-2.930
1578400664.144,44.434,45.898,41.016,34.180,10.742
1578400664.148,43.945,39.551,40.527,39.551,3.418
1578400664.152,34.180,39.551,37.598,39.062,29.297
1578400664.155,27.344,38.086,40.527,35.645,50.781
1578400664.159,35.156,37.598,41.504,30.273,34.668
1578400664.163,44.922,42.480,40.039,29.785,40.039
1578400664.167,41.016,42.480,38.086,32.715,36.621
1578400664.171,37.109,38.574,32.715,41.504,33.691
1578400664.175,36.621,34.668,32.227,42.969,43.945
1578400664.179,35.645,40.039,34.180,29.297,15.625
1578400664.183,43.945,39.551,30.273,29.785,54.688
1578400664.187,40.039,38.086,27.344,35.156,98.633
1578400664.191,27.344,36.133,26.855,31.738,41.504
1578400664.195,25.391,34.180,30.273,22.949,50.293
1578400664.198,30.273,38.574,35.645,18.066,54.199
1578400664.202,41.016,39.062,41.016,25.391,27.344
1578400664.206,41.992,34.668,34.668,25.879,18.066
1578400664.210,35.156,33.691,27.832,26.855,12.207
1578400664.214,33.691,41.016,30.762,34.180,55.664
1578400664.218,35.156,43.457,33.691,29.297,68.848
1578400664.222,43.457,42.480,34.668,25.879,69.336
1578400664.226,47.852,43.945,28.809,32.227,84.961
1578400664.230,37.598,39.551,21.973,36.133,47.852
1578400664.234,32.715,33.203,29.297,39.551,0.977
1578400664.237,40.039,31.738,41.016,41.016,-22.461
1578400664.241,44.434,34.180,48.340,38.574,11.719
1578400664.245,49.805,32.227,41.992,42.480,39.062
1578400664.249,43.457,31.738,38.574,45.898,47.852
1578400664.253,33.203,44.434,38.086,45.410,64.453
1578400664.257,37.598,46.875,37.598,39.551,-3.906
1578400664.261,45.410,37.109,34.668,31.738,30.273
1578400664.265,42.480,37.109,25.879,30.273,92.773
1578400664.269,34.180,40.039,28.320,34.668,72.754
1578400664.273,31.250,37.109,32.715,37.598,55.176
1578400664.277,31.738,36.133,35.645,34.668,11.230
1578400664.280,36.621,30.762,37.598,27.344,39.062
1578400664.284,42.480,22.461,33.203,26.855,48.828
1578400664.288,39.551,31.738,31.738,36.133,20.508
1578400664.292,31.738,38.574,33.203,34.668,20.020
1578400664.296,32.227,38.086,33.691,28.320,1.465
1578400664.300,42.969,44.922,31.738,29.297,-5.371
1578400664.304,47.852,43.945,34.180,36.621,-34.180
1578400664.308,45.410,41.504,34.668,41.016,-37.598
1578400664.312,41.016,41.504,39.551,39.062,-13.672
1578400664.316,32.715,41.992,44.434,31.738,24.414
1578400664.320,30.273,43.457,37.598,22.949,19.043
1578400664.323,34.180,41.016,35.645,24.902,-14.160
1578400664.327,35.156,36.133,33.203,27.832,-13.672
1578400664.331,31.738,34.668,39.062,29.297,40.039
1578400664.335,25.391,30.762,38.086,26.855,45.898
1578400664.339,35.645,32.715,33.203,27.344,23.926
1578400664.343,45.410,38.574,31.738,32.227,9.277
1578400664.347,40.527,34.180,30.762,38.086,19.531
1578400664.351,36.133,30.762,32.715,43.945,82.031
1578400664.355,38.086,34.180,32.715,40.527,76.660
1578400664.359,42.969,37.109,35.645,35.156,31.250
1578400664.362,47.363,38.086,35.645,36.621,18.555
1578400664.366,42.969,37.109,33.691,34.668,63.477
1578400664.370,36.133,38.574,36.133,38.574,77.148
1578400664.374,34.180,38.086,36.133,35.645,64.941
1578400664.378,36.621,44.434,37.598,27.832,90.332
1578400664.382,46.875,47.363,31.738,30.273,43.457
1578400664.386,48.828,40.039,25.391,37.109,27.832
1578400664.390,43.945,36.133,35.645,42.969,75.195
1578400664.394,41.016,31.738,42.480,47.363,104.980
1578400664.398,46.875,38.086,41.504,46.387,85.938
1578400664.402,57.129,48.340,39.062,43.945,41.016
1578400664.405,53.223,45.898,36.133,39.551,50.293
1578400664.409,39.551,36.133,35.156,43.457,64.453
1578400664.413,32.715,34.668,35.645,49.805,22.461
1578400664.417,30.273,36.621,35.645,35.156,44.922
1578400664.421,32.715,36.621,36.133,27.832,32.227
1578400664.425,40.039,38.574,40.039,36.133,0.488
1578400664.429,40.039,39.062,42.969,43.945,13.672
1578400664.433,31.250,33.203,37.598,42.969,-29.297
1578400664.437,27.344,32.715,31.738,36.621,-8.789
1578400664.441,34.668,30.762,34.668,33.691,49.316
1578400664.445,39.062,30.273,34.668,37.598,46.875
1578400664.448,33.203,35.645,32.715,36.133,32.715
1578400664.452,24.902,34.180,36.133,32.227,46.387
1578400664.456,27.344,35.645,38.574,36.621,43.457
1578400664.460,38.086,40.039,36.621,32.715,-11.230
1578400664.464,43.457,43.457,31.250,29.785,-23.926
1578400664.468,38.086,41.504,32.715,37.109,11.230
1578400664.472,26.855,33.691,38.086,42.480,72.754
1578400664.476,25.391,31.738,39.551,41.016,59.570
1578400664.480,32.715,38.086,40.527,38.574,27.344
1578400664.484,40.039,40.039,41.992,38.574,34.668
1578400664.487,39.551,39.551,43.945,38.086,38.086
1578400664.491,29.297,44.434,41.992,32.715,46.387
1578400664.495,32.715,45.898,42.480,35.645,-18.555
1578400664.499,44.434,42.480,38.574,32.715,-41.504
1578400664.503,45.898,41.016,30.273,29.297,7.812
1578400664.507,41.992,40.527,30.273,31.250,14.648
1578400664.511,31.250,34.668,30.273,29.785,49.805
1578400664.515,22.949,37.109,26.855,27.832,92.773
1578400664.519,39.551,50.781,35.645,28.320,33.691
1578400664.523,53.711,51.758,45.898,35.156,-13.672
1578400664.527,45.898,43.457,44.434,35.156,33.203
1578400664.530,34.180,41.016,38.574,32.715,100.098
1578400664.534,31.250,42.480,35.156,34.180,108.887
1578400664.538,36.621,40.039,37.598,31.250,33.203
1578400664.542,49.805,42.480,36.133,32.715,-26.367
1578400664.546,47.363,46.387,31.738,33.203,-16.113
1578400664.550,26.367,48.340,34.180,23.438,24.414
1578400664.554,22.949,43.457,39.551,21.973,24.902
1578400664.558,30.762,36.621,40.039,22.949,33.691
1578400664.562,38.574,43.457,38.574,25.391,57.129
1578400664.566,41.016,52.246,35.156,26.367,68.359
1578400664.570,29.297,49.316,32.227,21.484,71.777
1578400664.573,23.438,45.898,29.785,22.461,72.266
1578400664.577,27.832,44.434,30.273,22.461,85.449
1578400664.581,35.156,42.480,30.762,20.996,67.871
1578400664.585,40.527,44.922,30.273,25.879,34.668
1578400664.589,36.133,46.387,35.156,31.250,27.344
1578400664.593,33.203,39.551,32.227,31.250,41.016
1578400664.597,36.133,31.250,30.762,25.879,68.359
1578400664.601,38.574,37.598,38.574,26.367,59.570
1578400664.605,40.527,48.340,40.527,28.809,-7.324
1578400664.609,41.016,48.828,38.574,34.180,-24.902
1578400664.612,36.133,45.410,43.457,37.598,4.883
1578400664.616,39.551,45.898,45.898,35.645,39.551
1578400664.620,53.223,44.922,38.086,38.086,31.250
1578400664.624,57.617,42.480,31.738,41.016,16.602
1578400664.628,51.758,40.039,33.691,47.363,28.320
1578400664.632,43.945,34.180,40.039,53.223,34.668
1578400664.636,43.457,32.715,44.922,51.270,13.672
1578400664.640,49.316,38.086,39.551,43.457,-22.461
1578400664.644,51.758,41.504,37.598,40.527,-0.977
1578400664.648,43.457,42.969,41.016,43.457,51.758
1578400664.652,33.691,48.828,39.551,42.480,24.414
1578400664.655,33.203,47.852,36.621,36.133,20.020
1578400664.659,39.551,45.898,38.086,30.762,41.016
1578400664.663,42.480,44.434,33.691,34.180,34.180
1578400664.667,43.457,40.039,25.879,43.945,49.316
1578400664.671,41.016,46.387,33.691,46.875,79.590
1578400664.675,32.227,46.387,34.180,39.062,99.609
1578400664.679,31.738,40.039,33.203,40.527,54.199
1578400664.683,35.645,37.598,39.551,42.480,27.344
1578400664.687,32.715,39.551,36.621,42.480,73.730
1578400664.691,24.902,41.992,35.156,41.992,75.684
1578400664.695,21.973,39.062,34.668,40.527,33.691
1578400664.698,30.273,35.156,33.691,38.574,27.344
1578400664.702,40.527,38.574,38.574,36.133,19.531
1578400664.706,41.992,40.527,32.715,40.039,20.508
1578400664.710,32.715,43.945,25.391,41.016,12.207
1578400664.714,26.855,47.363,34.180,37.109,48.828
1578400664.718,29.785,39.551,39.062,30.762,38.574
1578400664.722,34.180,40.527,38.574,27.344,0.977
1578400664.726,35.156,46.387,35.156,32.715,39.551
1578400664.730,33.203,43.945,35.645,42.969,76.172
1578400664.734,31.250,36.621,42.969,49.316,66.406
1578400664.737,39.551,38.574,46.387,42.480,44.922
1578400664.741,47.363,45.410,39.551,34.668,70.801
1578400664.745,46.875,47.852,30.273,38.086,11.719
1578400664.749,43.945,47.852,36.621,43.945,-8.301
1578400664.753,39.551,51.270,39.062,44.922,39.551
1578400664.757,40.039,45.898,33.203,41.504,10.254
1578400664.761,49.805,43.457,42.480,38.574,-7.812
1578400664.765,55.664,49.805,49.316,37.598,50.781
1578400664.769,41.504,38.086,43.457,38.086,108.887
1578400664.773,28.320,34.668,39.551,39.062,100.586
1578400664.777,32.227,44.434,37.598,39.062,36.621
1578400664.780,38.574,36.621,31.250,32.715,6.836
1578400664.784,42.969,33.203,28.320,33.691,35.156
1578400664.788,41.016,38.086,32.227,41.504,87.891
1578400664.792,34.180,39.062,27.832,33.203,85.938
1578400664.796,30.762,41.016,28.320,25.391,16.602
1578400664.800,41.504,44.922,34.180,24.414,16.602
1578400664.804,53.711,42.969,30.762,29.785,10.742
1578400664.808,44.922,38.086,32.227,32.715,10.254
1578400664.812,35.645,40.039,31.250,34.180,-9.277
1578400664.816,38.086,41.504,26.367,33.203,-29.785
1578400664.820,45.898,38.086,28.320,29.297,18.066
1578400664.823,55.664,41.016,30.273,33.691,17.578
1578400664.827,56.641,40.527,39.062,42.480,-6.836
1578400664.831,43.945,32.715,39.551,43.945,3.418
1578400664.835,36.621,35.156,39.551,35.156,16.602
1578400664.839,41.504,37.109,40.527,25.879,-14.160
1578400664.843,40.039,36.621,31.250,21.973,-23.926
1578400664.847,37.598,39.062,34.668,28.809,13.672
1578400664.851,28.809,39.062,41.992,31.738,-2.930
1578400664.855,21.484,31.738,35.645,24.414,-28.809
1578400664.859,33.691,30.762,25.879,23.438,-11.719
1578400664.862,41.992,35.645,25.879,24.414,33.203
1578400664.866,39.551,34.668,31.738,27.832,16.602
1578400664.870,30.273,37.598,31.250,35.645,25.879
1578400664.874,26.367,33.691,32.227,34.668,64.453
1578400664.878,33.691,31.738,40.527,27.344,58.105
1578400664.882,41.504,43.457,40.527,26.367,53.223
1578400664.886,39.062,46.387,34.668,32.715,79.102
1578400664.890,30.273,39.551,33.691,35.645,17.090
1578400664.894,25.391,38.574,31.250,32.715,-65.918
1578400664.898,28.809,32.715,26.855,24.414,-34.180
1578400664.902,35.645,33.691,31.738,23.926,15.137
1578400664.905,38.086,40.039,39.062,34.180,38.574
1578400664.909,35.156,29.785,40.039,38.086,-21.484
1578400664.913,23.438,21.484,35.156,31.250,-27.832
1578400664.917,24.414,27.344,30.273,30.273,23.438
1578400664.921,39.062,29.785,29.785,33.203,31.738
1578400664.925,42.480,24.902,30.762,35.645,38.086
1578400664.929,41.016,20.996,31.250,38.086,53.223
1578400664.933,39.062,34.668,35.645,45.898,37.109
1578400664.937,34.668,41.992,42.969,42.969,-12.207
1578400664.941,36.133,41.016,49.805,35.156,23.438
1578400664.945,37.109,46.387,49.805,37.109,139.160
1578400664.948,30.273,38.086,46.387,40.039,130.859
1578400664.952,28.809,28.320,43.945,44.922,41.504
1578400664.956,37.109,31.738,37.109,44.922,80.566
1578400664.960,39.062,37.109,33.691,32.715,132.324
1578400664.964,38.086,39.062,37.598,29.785,48.340
1578400664.968,33.203,35.156,39.551,40.039,13.672
1578400664.972,25.391,33.203,37.109,40.039,34.668
1578400664.976,25.879,39.551,35.645,33.203,35.156
1578400664.980,34.668,41.504,38.574,30.762,52.246
1578400664.984,40.527,39.551,41.504,36.133,46.875
1578400664.987,36.621,39.062,39.551,36.133,17.090
1578400664.991,29.297,37.598,37.109,36.621,3.418
1578400664.995,24.902,37.109,38.574,33.203,3.418
1578400664.999,34.180,33.691,38.574,29.785,25.879
1578400665.003,43.457,32.227,37.598,30.762,21.973
1578400665.007,39.551,33.691,40.039,32.227,15.625
1578400665.011,37.598,29.297,38.086,41.016,17.578
1578400665.015,37.109,30.273,39.062,38.574,-12.207
1578400665.019,40.039,44.922,38.574,24.414,-11.230
1578400665.023,44.922,49.316,32.227,27.832,17.090
1578400665.027,37.109,41.504,36.621,37.109,21.484
1578400665.030,26.855,38.574,40.039,36.133,32.715
1578400665.034,27.344,38.574,39.062,33.691,23.438
1578400665.038,30.762,40.039,34.180,28.320,37.109
1578400665.042,41.016,40.527,37.109,26.367,23.438
1578400665.046,46.875,35.156,44.922,33.203,14.160
1578400665.050,35.156,35.156,41.992,37.109,43.945
1578400665.054,30.762,40.527,41.992,36.621,71.289
1578400665.058,39.551,45.410,40.527,34.180,41.992
1578400665.062,49.805,48.340,36.621,36.133,60.547
1578400665.066,53.711,45.898,35.156,37.598,66.895
1578400665.070,44.922,46.387,34.180,38.086,71.289
1578400665.073,37.109,47.852,35.645,37.598,106.934
1578400665.077,41.504,39.551,39.062,34.180,44.434
1578400665.081,47.852,35.645,38.086,31.738,34.180
1578400665.085,50.293,40.039,33.203,36.133,59.082
1578400665.089,48.828,44.434,34.180,48.340,58.594
1578400665.093,39.551,49.805,39.062,45.410,101.074
1578400665.097,36.621,51.758,37.109,36.133,69.336
1578400665.101,45.410,51.270,37.109,35.156,12.207
1578400665.105,47.852,47.852,31.738,37.109,39.062
1578400665.109,39.062,32.715,29.785,38.574,100.098
1578400665.112,33.691,17.578,39.551,37.598,52.246
1578400665.116,29.785,28.320,41.992,33.691,38.574
1578400665.120,40.527,41.992,40.527,33.691,52.246
1578400665.124,49.316,43.457,41.504,37.109,48.340
1578400665.128,37.109,42.480,42.969,41.016,21.484
1578400665.132,26.855,35.156,43.945,44.922,-25.391
1578400665.136,26.855,41.504,42.480,40.527,12.207
1578400665.140,34.668,44.922,39.062,32.715,15.137
1578400665.144,43.457,32.715,35.645,34.668,-3.418
1578400665.148,41.992,30.273,41.016,41.504,19.043
1578400665.152,37.109,31.738,42.969,44.434,-23.926
1578400665.155,32.227,36.133,42.480,40.039,-11.719
1578400665.159,38.086,41.504,45.898,40.527,12.207
1578400665.163,45.410,38.086,43.457,44.922,38.574
1578400665.167,38.086,37.109,37.598,42.480,92.285
1578400665.171,33.203,40.039,38.574,40.039,79.102
1578400665.175,32.227,34.668,40.039,35.156,35.645
1578400665.179,33.691,29.297,36.621,25.391,27.344
1578400665.183,40.039,36.133,37.109,23.438,82.520
1578400665.187,34.668,41.504,38.086,29.297,93.262
1578400665.191,23.926,38.574,35.156,34.668,54.199
1578400665.195,24.414,35.645,34.668,31.738,-8.789
1578400665.198,27.344,38.574,36.133,23.438,-37.598
1578400665.202,35.645,40.039,36.621,23.438,4.883
1578400665.206,41.016,33.691,41.016,33.691,-42.480
1578400665.210,35.645,33.691,43.457,39.062,-9.766
1578400665.214,31.250,35.156,35.156,35.645,48.828
1578400665.218,34.668,38.086,34.668,32.715,24.902
1578400665.222,45.410,47.852,36.133,31.250,5.859
1578400665.226,45.410,43.945,31.250,34.668,15.625
1578400665.230,33.203,37.598,28.809,33.203,37.109
1578400665.234,29.785,39.551,27.344,29.297,70.312
1578400665.237,39.551,39.062,24.902,28.320,41.992
1578400665.241,50.293,37.109,29.297,29.785,17.090
1578400665.245,52.246,32.715,36.621,34.668,25.879
1578400665.249,40.039,36.621,39.062,38.574,64.941
1578400665.253,29.297,42.480,37.109,40.039,52.734
1578400665.257,27.832,42.969,32.715,34.668,16.602
1578400665.261,31.738,41.016,28.809,30.273,32.715
1578400665.265,37.109,43.457,29.297,36.133,29.297
1578400665.269,32.715,44.434,33.203,38.086,27.832
1578400665.273,30.762,38.086,37.598,36.621,46.387
1578400665.277,34.180,36.133,36.133,33.691,24.414
1578400665.280,36.621,40.527,35.156,31.250,20.508
1578400665.284,43.457,45.898,43.945,36.621,22.949
1578400665.288,43.457,42.480,48.340,41.504,66.406
1578400665.292,34.668,34.668,43.457,43.945,94.238
1578400665.296,31.250,36.133,43.457,42.969,40.527
1578400665.300,34.668,39.062,48.828,36.133,21.484
1578400665.304,37.109,36.621,39.551,30.762,-28.809
1578400665.308,32.227,34.668,31.738,33.203,12.207
1578400665.312,24.902,36.621,40.527,32.715,67.383
1578400665.316,26.855,36.133,43.457,23.438,88.379
1578400665.320,35.645,38.574,38.086,20.020,124.023
1578400665.323,40.039,39.551,32.715,26.367,76.172
1578400665.327,34.668,29.297,34.668,28.320,3.418
1578400665.331,32.227,29.785,40.527,31.738,13.184
1578400665.335,35.156,39.062,38.086,30.273,32.227
1578400665.339,36.133,40.527,32.715,22.949,35.645
1578400665.343,39.551,31.738,26.855,25.879,27.832
1578400665.347,39.551,28.809,27.832,29.785,24.414
1578400665.351,32.227,32.715,33.691,35.156,72.754
1578400665.355,33.203,37.598,33.691,34.668,44.922
1578400665.359,39.551,38.574,36.621,29.785,53.223
1578400665.362,43.945,41.504,32.715,35.645,41.016
1578400665.366,42.480,43.457,29.297,40.527,46.387
1578400665.370,40.527,41.504,37.109,45.410,118.164
1578400665.374,41.016,39.062,37.598,45.410,100.586
1578400665.378,37.598,36.621,29.297,31.738,22.461
1578400665.382,37.598,39.551,31.250,27.344,26.855
1578400665.386,34.180,41.016,37.109,25.879,45.898
1578400665.390,29.297,39.062,35.156,23.438,31.738
1578400665.394,29.297,38.574,32.715,24.902,20.020
1578400665.398,31.738,38.086,36.621,26.855,-7.324
1578400665.402,39.062,37.109,38.574,29.297,19.043
1578400665.405,41.504,33.691,38.574,34.668,13.184
1578400665.409,34.668,30.762,38.574,40.527,-39.062
1578400665.413,31.250,37.109,36.133,42.480,7.812
1578400665.417,35.645,38.086,40.039,41.992,45.898
1578400665.421,40.527,33.203,39.062,38.086,4.883
1578400665.425,42.969,39.062,36.133,43.945,10.254
1578400665.429,37.109,47.363,32.715,45.898,17.578
1578400665.433,30.762,44.434,35.645,40.527,20.020
1578400665.437,34.180,43.457,38.086,36.621,40.527
1578400665.441,43.457,40.527,32.715,31.738,32.227
1578400665.445,44.434,37.598,29.785,32.227,30.762
1578400665.448,38.086,33.691,33.691,35.156,20.508
1578400665.452,33.691,30.273,36.621,35.645,10.254
1578400665.456,34.180,32.715,41.504,33.203,-5.859
1578400665.460,44.434,40.039,39.551,33.203,37.598
1578400665.464,52.734,44.922,30.762,33.203,79.102
1578400665.468,45.410,39.062,31.738,36.133,50.781
1578400665.472,39.062,37.598,35.156,41.504,51.758
1578400665.476,40.527,37.109,35.156,37.598,64.453
1578400665.480,47.363,39.551,29.297,30.762,25.391
1578400665.484,54.199,45.410,28.809,38.574,48.340
1578400665.487,48.340,47.363,34.668,46.875,47.363
1578400665.491,35.156,41.016,38.574,44.434,54.199
1578400665.495,34.180,37.598,36.133,41.992,89.355
1578400665.499,41.992,46.875,28.809,35.645,88.867
1578400665.503,52.246,51.270,28.320,37.109,80.078
1578400665.507,47.852,49.805,29.785,40.527,31.738
1578400665.511,34.668,41.992,35.645,38.574,30.762
1578400665.515,33.203,42.969,39.551,41.504,51.270
1578400665.519,33.691,44.434,39.551,35.645,83.008
1578400665.523,42.969,41.504,40.527,31.738,55.664
1578400665.527,48.828,39.062,40.039,37.109,29.297
1578400665.530,37.109,34.668,39.551,35.156,26.367
1578400665.534,29.297,41.992,33.691,32.227,-4.883
1578400665.538,34.180,50.293,34.180,25.879,3.418
1578400665.542,38.574,44.434,37.598,15.137,53.711
1578400665.546,38.086,34.180,37.109,20.508,70.312
1578400665.550,30.273,36.621,32.227,31.738,12.695
1578400665.554,26.367,37.109,28.320,28.809,-13.672
1578400665.558,35.156,32.715,34.668,25.879,16.602
1578400665.562,41.504,37.598,37.598,29.785,44.922
1578400665.566,41.504,41.016,34.180,36.133,42.480
1578400665.570,39.062,41.992,35.156,38.574,28.809
1578400665.573,30.273,42.480,37.109,28.809,27.832
1578400665.577,36.621,43.457,37.598,26.855,34.180
1578400665.581,47.852,37.109,34.180,28.320,33.691
1578400665.585,44.434,33.203,30.762,25.391,5.371
1578400665.589,37.109,40.039,33.691,30.273,-18.066
1578400665.593,38.574,44.434,37.598,37.109,12.695
1578400665.597,45.898,43.945,33.691,30.273,14.160
1578400665.601,51.270,42.969,28.320,22.461,-6.348
1578400665.605,52.734,45.898,28.809,27.832,18.555
1578400665.609,44.434,48.828,34.668,30.762,42.480
1578400665.612,37.109,46.387,34.668,28.809,53.223
1578400665.616,35.645,39.551,35.645,24.414,53.711
1578400665.620,37.109,41.992,36.621,24.902,10.742
1578400665.624,36.621,47.363,35.645,31.738,43.945
1578400665.628,27.344,43.945,35.156,38.086,106.934
1578400665.632,21.973,43.945,27.832,38.086,60.059
1578400665.636,26.855,46.387,28.809,28.320,19.531
1578400665.640,34.180,45.898,39.062,20.996,48.828
1578400665.644,41.504,41.504,40.039,27.344,66.406
1578400665.648,38.086,40.527,39.551,33.691,78.125
1578400665.652,29.785,40.527,38.086,30.762,58.105
1578400665.655,33.691,37.598,34.668,31.738,49.805
1578400665.659,47.852,38.574,37.598,35.645,56.152
1578400665.663,55.664,34.180,38.574,39.551,34.180
1578400665.667,51.758,27.344,39.062,49.316,62.500
1578400665.671,47.363,35.645,42.969,52.734,93.750
1578400665.675,50.293,42.480,49.316,49.805,-0.488
1578400665.679,57.617,40.039,49.805,49.316,-46.387
1578400665.683,60.059,41.504,45.898,53.711,12.207
1578400665.687,52.246,47.363,41.016,62.012,56.641
1578400665.691,42.480,43.945,32.715,62.500,55.664
1578400665.695,38.574,34.180,33.691,52.734,30.762
1578400665.698,42.969,32.227,40.527,44.922,-0.977
1578400665.702,51.758,40.527,42.969,45.898,-12.207
1578400665.706,48.828,47.852,42.969,48.340,17.578
1578400665.710,40.039,41.016,35.645,49.805,62.988
1578400665.714,36.621,34.668,33.691,46.875,22.461
1578400665.718,38.574,40.527,36.133,39.551,-40.527
1578400665.722,44.922,45.898,30.273,41.504,-27.344
1578400665.726,44.922,44.434,31.250,42.969,37.598
1578400665.730,38.086,41.992,40.527,38.574,61.523
1578400665.734,33.691,40.527,39.551,35.156,57.617
1578400665.737,35.645,43.945,33.691,26.367,55.664
1578400665.741,39.551,43.945,30.273,20.508,33.203
1578400665.745,40.039,40.527,28.320,30.273,40.527
1578400665.749,34.180,33.203,31.738,36.133,19.531
1578400665.753,28.320,38.086,33.203,34.180,21.973
1578400665.757,26.855,50.781,27.344,31.250,76.660
1578400665.761,31.738,47.363,23.926,34.180,97.656
1578400665.765,40.527,46.387,26.367,42.969,79.590
1578400665.769,37.109,47.363,30.273,45.410,74.219
1578400665.773,32.715,38.086,33.203,46.387,50.293
1578400665.777,39.551,37.598,31.738,42.480,41.016
1578400665.780,49.805,50.293,38.086,42.969,53.223
1578400665.784,52.246,45.898,43.945,44.434,55.664
1578400665.788,44.434,39.062,44.434,49.316,20.020
1578400665.792,36.133,38.086,38.086,53.223,-18.066
1578400665.796,33.203,40.039,30.273,42.480,16.113
1578400665.800,36.621,43.945,38.086,33.691,9.766
1578400665.804,38.574,44.922,43.457,33.691,5.859
1578400665.808,34.180,44.434,41.992,32.227,18.066
1578400665.812,33.691,36.133,42.480,37.109,-10.742
1578400665.816,37.109,40.527,41.504,38.086,-9.766
1578400665.820,43.457,47.852,37.598,33.691,56.641
1578400665.823,50.781,40.039,31.738,36.621,108.887
1578400665.827,48.828,35.156,26.855,41.504,73.730
1578400665.831,42.969,38.574,30.762,47.852,71.777
1578400665.835,40.039,46.875,40.039,43.945,75.684
1578400665.839,37.598,50.781,35.156,30.273,109.863
1578400665.843,40.039,45.410,32.715,32.227,92.773
1578400665.847,36.133,38.574,35.156,35.156,73.242
1578400665.851,26.367,31.250,32.715,31.250,65.918
1578400665.855,24.902,32.227,29.785,26.367,6.348
1578400665.859,28.809,33.203,24.414,20.508,57.617
1578400665.862,39.062,29.785,29.785,27.832,37.598
1578400665.866,36.133,37.109,31.250,34.668,-6.348
1578400665.870,25.879,43.457,27.832,30.273,11.719
1578400665.874,27.832,40.039,32.227,29.297,-0.977
1578400665.878,33.203,41.016,35.645,35.156,29.297
1578400665.882,33.691,41.016,39.062,39.062,19.531
1578400665.886,29.785,44.922,40.039,39.062,8.789
1578400665.890,26.367,47.852,39.062,36.133,30.273
1578400665.894,23.926,40.039,37.109,29.297,14.648
1578400665.898,30.762,38.086,30.762,24.902,0.000
1578400665.902,39.062,41.992,33.203,27.832,12.207
1578400665.905,38.574,35.156,39.062,33.691,36.621
1578400665.909,30.762,33.203,34.180,32.227,87.891
1578400665.913,23.438,33.691,31.250,25.879,87.402
1578400665.917,29.297,31.738,31.250,16.113,5.859
1578400665.921,35.156,40.039,28.320,12.695,8.789
1578400665.925,41.504,42.969,34.180,26.855,21.484
1578400665.929,43.457,39.062,36.133,40.527,1.465
1578400665.933,33.691,34.668,32.227,41.992,21.973
1578400665.937,34.668,37.109,33.691,38.574,28.320
1578400665.941,45.410,35.156,35.156,37.109,-17.578
1578400665.945,48.828,33.691,36.133,43.457,-11.230
1578400665.948,36.621,38.086,37.598,43.457,4.395
1578400665.952,28.320,38.574,34.668,38.574,0.000
1578400665.956,27.344,40.039,34.668,32.715,20.508
1578400665.960,31.738,43.945,34.180,25.391,-14.160
1578400665.964,40.527,50.293,38.086,31.250,-16.602
1578400665.968,34.180,46.387,41.016,40.039,18.555
1578400665.972,24.902,37.598,30.762,34.668,30.273
1578400665.976,26.367,37.109,31.738,27.832,14.648
1578400665.980,33.691,41.016,33.691,28.809,-0.488
1578400665.984,37.109,48.340,31.250,33.691,17.090
1578400665.987,36.621,46.875,34.180,42.480,60.059
1578400665.991,30.762,39.551,38.086,43.457,56.152
1578400665.995,28.320,32.715,40.039,40.039,34.180
1578400665.999,37.109,31.738,37.109,41.016,41.504
1578400666.003,42.480,33.203,33.203,44.434,48.828
1578400666.007,40.527,36.133,26.855,45.898,63.965
1578400666.011,35.645,41.016,30.762,41.504,86.426
1578400666.015,36.133,40.527,33.691,41.992,91.309
1578400666.019,43.945,40.527,34.668,38.086,87.402
1578400666.023,49.316,42.969,36.621,34.180,40.039
1578400666.027,46.387,41.992,32.715,37.109,33.203
1578400666.030,38.574,36.621,33.691,40.039,17.090
1578400666.034,32.227,33.691,37.598,37.598,8.301
1578400666.038,33.203,37.109,37.109,27.832,4.395
1578400666.042,39.062,39.062,38.086,28.809,-9.766
1578400666.046,34.180,31.250,43.457,36.621,10.254
1578400666.050,22.461,33.203,38.574,32.227,14.648
1578400666.054,14.648,42.969,27.832,18.066,40.527
1578400666.058,23.438,44.922,29.297,16.113,34.668
1578400666.062,34.180,47.363,26.367,20.020,29.297
1578400666.066,36.133,47.363,26.367,27.832,27.832
1578400666.070,37.598,41.992,33.691,36.133,52.734
1578400666.073,38.086,40.039,36.621,36.133,49.805
1578400666.077,47.363,36.621,38.086,36.133,27.832
1578400666.081,47.852,31.250,36.133,32.227,16.113
1578400666.085,45.410,38.574,35.645,33.203,25.391
1578400666.089,46.387,39.062,35.645,45.898,43.457
1578400666.093,35.645,38.086,34.180,46.387,19.043
1578400666.097,33.203,41.504,36.621,37.598,59.570
1578400666.101,45.410,41.992,43.457,38.574,75.684
1578400666.105,45.410,40.039,43.945,39.551,71.289
1578400666.109,38.574,35.156,40.039,40.527,59.570
1578400666.112,33.691,31.250,41.504,40.527,39.551
1578400666.116,31.250,27.344,39.062,31.738,22.949
1578400666.120,40.527,27.832,32.227,30.762,-13.672
1578400666.124,41.016,28.809,29.785,31.738,-1.465
1578400666.128,31.738,33.691,32.715,31.250,50.781
1578400666.132,25.879,33.691,34.668,33.203,18.555
1578400666.136,28.320,30.762,32.715,28.809,29.297
1578400666.140,38.574,34.668,35.156,29.785,85.449
1578400666.144,45.410,34.180,36.133,35.645,32.227
1578400666.148,41.992,32.715,39.062,37.598,2.441
1578400666.152,36.133,38.086,37.598,36.621,65.430
1578400666.155,36.621,45.410,29.297,31.738,60.547
1578400666.159,39.062,48.340,23.438,24.414,45.898
1578400666.163,38.574,45.898,25.879,21.973,47.852
1578400666.167,32.227,41.992,34.668,28.320,47.363
1578400666.171,24.414,36.133,37.109,35.156,28.809
1578400666.175,21.973,33.203,35.645,31.738,-5.371
1578400666.179,28.809,41.016,37.598,26.367,-41.016
1578400666.183,35.156,43.457,39.551,27.832,44.922
1578400666.187,33.203,41.992,40.527,38.574,67.383
1578400666.191,27.832,44.922,41.016,40.527,3.418
1578400666.195,34.668,47.363,34.668,36.133,25.879
1578400666.198,45.898,47.852,33.691,32.715,38.086
1578400666.202,54.688,47.363,35.156,33.203,24.414
1578400666.206,51.758,47.363,37.598,40.527,2.441
1578400666.210,42.480,38.574,39.551,41.016,0.488
1578400666.214,39.062,33.691,38.574,37.598,40.039
1578400666.218,36.621,35.645,39.551,30.762,36.133
1578400666.222,44.434,41.016,36.621,30.762,43.945
1578400666.226,47.852,52.246,33.691,36.621,41.992
1578400666.230,33.203,51.270,31.738,32.227,25.391
1578400666.234,20.020,45.898,24.414,26.367,29.785
1578400666.237,23.438,42.969,22.949,20.996,-14.648
1578400666.241,34.180,40.039,28.809,20.996,-42.480
1578400666.245,37.598,33.691,31.250,25.391,-21.973
1578400666.249,29.297,28.320,31.250,27.344,-12.207
1578400666.253,29.297,36.133,31.738,34.668,45.898
1578400666.257,37.598,43.457,30.762,36.621,33.203
1578400666.261,48.828,45.898,28.320,33.691,43.457
1578400666.265,57.129,43.457,34.180,46.387,72.266
1578400666.269,55.664,37.598,38.086,55.176,62.012
1578400666.273,48.340,32.715,38.574,56.152,62.988
1578400666.277,47.363,32.227,49.316,57.617,40.039
1578400666.280,48.340,40.039,51.270,51.270,15.137
1578400666.284,46.387,43.457,44.434,46.387,27.344
1578400666.288,30.762,35.645,41.016,41.016,10.742
1578400666.292,16.602,30.273,43.945,30.762,33.203
1578400666.296,23.926,27.832,48.828,26.855,70.801
1578400666.300,29.297,31.250,40.527,30.273,34.180
1578400666.304,26.855,41.016,32.715,31.250,42.480
1578400666.308,23.926,45.898,38.086,31.250,71.289
1578400666.312,23.926,47.852,46.875,33.203,7.812
1578400666.316,42.480,62.012,55.664,41.992,-39.062
1578400666.320,47.363,62.012,47.852,26.855,32.227
1578400666.323,33.691,46.875,36.133,10.254,72.754
1578400666.327,30.273,48.828,47.363,15.625,44.922
1578400666.331,17.578,56.641,51.758,9.277,48.340
1578400666.335,19.531,70.801,50.781,7.812,39.551
1578400666.339,22.461,70.801,59.082,0.488,39.551
1578400666.343,4.883,66.895,65.918,-10.742,93.262
1578400666.347,-18.555,73.730,61.035,-21.484,103.027
1578400666.351,-41.016,83.008,64.941,-30.273,23.438
1578400666.355,-51.758,88.379,80.078,-36.621,-4.883
1578400666.359,-54.199,92.773,90.332,-54.199,64.453
1578400666.362,-65.430,96.191,84.961,-72.754,49.805
1578400666.366,-85.449,96.191,86.914,-82.520,49.316
1578400666.370,-102.539,103.516,92.285,-84.961,65.430
1578400666.374,-108.887,105.957,94.238,-87.891,-26.855
1578400666.378,-109.863,103.516,96.680,-94.238,-7.324
1578400666.382,-101.562,107.422,95.215,-93.750,54.199
1578400666.386,-95.703,110.840,96.191,-87.891,52.734
1578400666.390,-102.051,102.051,100.586,-81.543,56.641
1578400666.394,-96.680,96.680,104.492,-75.195,36.621
1578400666.398,-83.984,98.633,100.586,-78.125,33.203
1578400666.402,-71.289,101.074,98.633,-79.102,26.367
1578400666.405,-64.941,98.633,98.145,-69.824,46.875
1578400666.409,-69.824,84.473,94.238,-65.918,85.938
1578400666.413,-67.383,79.102,86.426,-65.918,41.504
1578400666.417,-54.199,91.309,77.148,-63.965,-32.227
1578400666.421,-46.387,88.379,74.219,-63.477,10.254
1578400666.425,-41.016,78.125,73.730,-56.152,109.863
1578400666.429,-46.875,71.289,64.453,-51.270,119.141
1578400666.433,-53.711,62.988,50.781,-47.852,49.805
1578400666.437,-34.180,56.641,47.363,-34.668,48.828
1578400666.441,-11.230,46.387,50.293,-20.996,40.527
1578400666.445,-3.906,37.109,49.805,-6.348,28.809
1578400666.448,-0.977,31.738,41.992,10.742,29.297
1578400666.452,8.301,26.367,36.621,23.926,63.965
1578400666.456,18.555,17.090,33.691,25.391,39.062
1578400666.460,30.762,10.254,27.832,29.297,-19.043
1578400666.464,44.434,17.578,23.438,46.875,41.992
1578400666.468,43.945,17.090,18.555,53.711,47.852
1578400666.472,36.621,9.766,17.578,48.340,-3.418
1578400666.476,40.527,5.371,15.137,46.387,41.504
1578400666.480,49.805,-3.418,5.371,53.711,58.105
1578400666.484,61.035,-1.953,2.930,68.359,38.086
1578400666.487,60.059,0.488,9.277,74.707,39.551
1578400666.491,54.688,-6.836,11.719,73.730,2.441
1578400666.495,61.523,-9.766,14.648,76.172,-0.488
1578400666.499,79.590,-9.277,13.672,78.125,49.805
1578400666.503,92.285,-3.418,6.836,82.031,59.570
1578400666.507,87.891,-1.465,2.441,86.426,8.301
1578400666.511,81.055,-0.488,-0.977,88.867,29.297
1578400666.515,87.402,5.859,-4.395,85.449,37.109
1578400666.519,96.191,8.301,-0.977,79.102,77.148
1578400666.523,106.445,10.254,0.977,84.473,56.152
1578400666.527,108.887,15.137,1.953,93.750,-31.738
1578400666.530,98.633,11.719,7.324,89.355,-4.883
1578400666.534,94.727,7.812,7.812,83.008,24.414
1578400666.538,101.562,8.789,2.441,82.031,36.621
1578400666.542,109.863,11.230,4.883,84.961,80.078
1578400666.546,104.980,11.230,8.789,90.332,46.387
1578400666.550,92.285,4.883,5.371,91.797,32.715
1578400666.554,90.820,9.277,2.441,91.309,28.320
1578400666.558,96.191,15.625,7.812,86.914,-32.227
1578400666.562,93.750,11.719,14.160,83.496,12.695
1578400666.566,89.355,6.836,13.672,88.379,48.828
1578400666.570,78.613,7.324,12.207,87.402,51.270
1578400666.573,68.359,14.160,13.672,79.102,93.262
1578400666.577,73.242,13.184,13.672,73.242,70.801
1578400666.581,80.078,14.160,10.742,74.219,-8.301
1578400666.585,73.730,17.090,13.184,79.590,10.742
1578400666.589,63.477,18.066,18.066,81.055,33.203
1578400666.593,63.965,21.484,24.414,78.613,-2.930
1578400666.597,66.895,19.531,26.367,71.777,19.043
1578400666.601,78.125,24.414,20.508,67.871,22.949
1578400666.605,88.379,29.785,20.996,72.754,25.879
1578400666.609,87.891,24.414,23.438,77.637,-1.953
1578400666.612,86.914,24.414,23.926,72.266,-17.578
1578400666.616,92.773,27.832,25.879,69.336,45.898
1578400666.620,98.145,26.367,23.926,66.406,93.262
1578400666.624,93.750,29.297,25.879,60.547,93.262
1578400666.628,86.426,33.691,30.273,68.359,63.965
1578400666.632,79.102,34.180,31.250,76.660,7.324
1578400666.636,77.637,34.180,27.832,70.801,8.301
1578400666.640,81.543,37.598,23.926,65.918,19.531
1578400666.644,81.055,38.086,30.273,67.383,41.992
1578400666.648,76.172,36.133,34.668,72.266,87.891
1578400666.652,67.383,26.855,24.414,66.895,67.871
1578400666.655,60.547,19.531,21.973,54.688,21.484
1578400666.659,64.941,35.645,28.320,52.246,-10.742
1578400666.663,67.383,40.039,24.902,56.152,-31.738
1578400666.667,56.641,32.715,20.508,54.199,9.277
1578400666.671,45.898,37.109,27.344,51.270,54.688
1578400666.675,50.293,40.527,34.180,54.199,62.500
1578400666.679,55.664,40.527,30.762,50.781,16.602
1578400666.683,55.664,39.551,27.344,48.828,-16.113
1578400666.687,49.316,34.180,31.250,43.945,17.578
1578400666.691,45.410,35.156,33.203,41.016,10.742
1578400666.695,44.434,36.621,30.273,42.480,66.406
1578400666.698,44.922,34.668,35.645,36.133,115.234
1578400666.702,48.340,38.086,38.574,40.039,60.547
1578400666.706,45.898,39.062,36.621,51.270,42.480
1578400666.710,43.945,37.109,33.691,47.363,33.203
1578400666.714,46.387,35.156,28.320,44.922,-21.484
1578400666.718,48.340,34.668,26.367,45.898,11.230
1578400666.722,42.480,33.691,32.715,36.133,49.316
1578400666.726,34.180,32.715,35.645,31.250,93.750
1578400666.730,34.180,27.344,34.668,36.621,129.395
1578400666.734,34.668,20.996,36.133,42.480,49.805
1578400666.737,38.086,25.391,35.645,45.410,-12.695
1578400666.741,43.457,25.391,34.668,45.410,23.926
1578400666.745,43.945,22.949,38.086,55.664,38.086
1578400666.749,36.133,31.738,40.527,62.012,37.109
1578400666.753,27.344,34.668,31.738,57.617,54.199
1578400666.757,34.180,28.320,34.668,52.246,36.133
1578400666.761,49.805,32.715,41.992,55.664,44.922
1578400666.765,55.664,34.668,41.016,62.500,-3.906
1578400666.769,50.293,32.715,36.133,61.035,-42.480
1578400666.773,43.457,28.809,29.785,49.316,18.066
1578400666.777,48.828,31.738,30.273,39.062,31.250
1578400666.780,57.129,41.016,32.227,35.156,51.270
1578400666.784,57.129,40.039,23.438,31.250,40.527
1578400666.788,53.223,38.086,16.113,37.109,-2.441
1578400666.792,44.922,37.109,29.297,36.133,9.277
1578400666.796,48.828,35.156,38.086,31.250,9.766
1578400666.800,55.664,32.715,30.273,25.879,7.324
1578400666.804,55.176,37.109,27.832,25.879,-3.906
1578400666.808,47.852,38.574,33.691,34.180,25.879
1578400666.812,41.016,36.133,38.574,35.156,41.016
1578400666.816,46.875,32.715,35.156,33.203,30.762
1578400666.820,53.223,36.621,28.320,29.785,40.527
1578400666.823,53.711,40.039,27.344,34.668,52.734
1578400666.827,51.270,37.598,31.738,49.805,53.223
1578400666.831,43.945,37.109,32.227,54.199,46.387
1578400666.835,38.086,32.715,33.691,49.316,41.016
1578400666.839,45.898,28.809,41.016,44.434,-18.555
1578400666.843,52.734,33.203,40.527,42.480,-29.297
1578400666.847,43.945,33.691,37.109,40.527,60.059
1578400666.851,32.715,29.785,37.598,37.598,51.270
1578400666.855,27.344,33.203,39.062,36.621,0.488
1578400666.859,31.250,38.574,37.109,32.227,10.254
1578400666.862,33.691,38.574,37.598,33.203,11.230
1578400666.866,30.273,35.156,37.598,39.062,13.184
1578400666.870,28.809,34.668,40.039,43.457,12.695
1578400666.874,28.809,38.574,39.062,39.062,35.156
1578400666.878,31.738,34.180,34.180,33.203,-8.301
1578400666.882,37.598,31.250,29.785,33.203,-35.156
1578400666.886,36.621,35.156,26.855,36.621,49.805
1578400666.890,28.809,34.180,33.203,40.527,89.355
1578400666.894,22.461,36.621,38.086,34.668,85.938
1578400666.898,26.367,43.457,34.180,30.762,81.543
1578400666.902,37.109,44.434,37.598,38.086,77.148
1578400666.905,41.016,42.480,41.992,42.969,91.309
1578400666.909,30.762,44.434,38.574,43.945,43.457
1578400666.913,28.320,43.457,43.457,42.969,7.812
1578400666.917,35.156,36.133,44.434,38.086,40.527
1578400666.921,44.922,36.621,39.062,36.133,36.133
1578400666.925,47.363,47.363,40.527,37.109,29.785
1578400666.929,40.039,43.945,41.992,37.109,6.836
1578400666.933,41.992,39.062,36.621,33.691,-8.301
1578400666.937,45.898,38.086,33.203,26.855,44.434
1578400666.941,53.223,38.574,35.645,31.738,50.293
1578400666.945,53.711,45.410,37.109,37.598,47.852
1578400666.948,54.688,44.434,32.227,43.945,7.812
1578400666.952,62.988,37.598,40.039,56.641,1.465
1578400666.956,46.875,39.551,49.805,43.945,37.598
1578400666.960,29.785,47.852,46.387,20.020,22.461
1578400666.964,35.156,45.898,46.387,27.344,54.688
1578400666.968,25.391,42.969,49.316,33.691,90.332
1578400666.972,11.719,36.133,51.270,24.414,61.523
1578400666.976,11.230,32.227,50.293,21.484,45.410
1578400666.980,14.160,32.715,47.852,19.043,48.340
1578400666.984,15.137,27.832,45.898,17.090,47.363
1578400666.987,1.465,28.809,48.340,19.531,-2.441
1578400666.991,-8.789,34.180,52.246,18.555,-20.996
1578400666.995,-4.883,30.762,48.828,6.348,35.645
1578400666.999,2.441,29.297,48.340,-1.465,44.922
1578400667.003,6.348,30.762,54.688,8.789,46.875
1578400667.007,4.883,26.855,57.129,24.902,65.918
1578400667.011,3.418,28.320,53.711,32.227,54.688
1578400667.015,4.395,28.320,45.410,28.320,71.777
1578400667.019,8.301,25.879,43.457,28.320,60.059
1578400667.023,12.207,33.203,42.480,35.645,49.805
1578400667.027,11.719,36.621,44.922,40.039,101.562
1578400667.030,10.742,31.250,52.734,40.527,37.598
1578400667.034,8.789,31.250,50.293,35.645,1.465
1578400667.038,16.113,30.273,47.363,34.668,47.852
1578400667.042,32.227,26.855,44.922,40.039,-25.879
1578400667.046,34.180,32.715,45.898,48.828,-29.297
1578400667.050,25.879,37.109,41.504,51.270,-0.977
1578400667.054,22.949,30.762,36.133,44.922,-21.484
1578400667.058,34.180,29.297,39.551,40.527,-2.441
1578400667.062,44.434,31.250,43.457,37.109,55.176
1578400667.066,48.340,30.273,41.016,43.457,57.617
1578400667.070,45.898,38.086,43.457,52.246,31.250
1578400667.073,38.574,43.457,54.688,50.293,-18.066
1578400667.077,47.852,41.504,51.758,42.969,-16.602
1578400667.081,61.035,41.992,40.039,42.480,34.668
1578400667.085,62.012,43.457,40.527,43.457,55.664
1578400667.089,55.664,36.621,39.062,42.969,67.383
1578400667.093,50.293,37.109,32.227,41.016,54.199
1578400667.097,57.617,42.480,34.180,34.180,79.102
1578400667.101,67.383,42.969,34.180,33.203,56.152
1578400667.105,65.918,39.551,37.109,34.180,80.078
1578400667.109,54.688,39.062,39.551,32.715,105.957
1578400667.112,51.270,51.758,41.992,35.645,27.344
1578400667.116,54.688,52.734,37.598,33.691,3.906
1578400667.120,62.988,49.316,29.297,30.762,8.789
1578400667.124,58.105,45.898,29.785,34.668,-3.418
1578400667.128,43.457,35.156,31.250,38.086,-10.742
1578400667.132,38.086,35.645,35.645,31.250,50.293
1578400667.136,42.480,37.598,38.086,26.855,62.012
1578400667.140,43.945,37.598,38.086,24.902,3.906
1578400667.144,41.016,41.016,33.691,24.902,27.832
1578400667.148,33.691,37.598,35.156,30.762,26.367
1578400667.152,28.320,39.062,40.039,29.297,35.645
1578400667.155,28.320,41.504,39.551,27.344,-4.883
1578400667.159,30.762,36.133,37.109,25.391,-34.668
1578400667.163,32.227,37.109,36.133,29.785,50.293
1578400667.167,24.414,40.039,38.574,37.109,62.012
1578400667.171,9.766,39.551,34.180,33.203,8.789
1578400667.175,1.953,39.551,31.738,24.414,59.082
1578400667.179,7.812,40.527,37.109,21.484,82.520
1578400667.183,14.648,36.621,41.016,28.320,17.578
1578400667.187,12.695,33.203,38.574,36.133,27.344
1578400667.191,9.766,33.203,35.156,40.039,41.992
1578400667.195,13.672,34.668,35.156,36.621,54.688
1578400667.198,24.902,32.227,37.109,35.156,61.035
1578400667.202,41.992,29.785,38.086,40.527,56.152
1578400667.206,45.410,34.668,39.551,49.805,51.758
1578400667.210,39.062,35.156,36.621,50.293,71.289
1578400667.214,42.480,24.414,37.109,39.551,59.082
1578400667.218,57.129,20.508,47.363,44.434,36.621
1578400667.222,57.129,28.809,49.805,44.434,31.738
1578400667.226,39.551,32.715,46.875,30.762,5.859
1578400667.230,27.344,31.738,46.387,28.809,49.805
1578400667.234,26.855,30.273,51.270,30.762,40.527
1578400667.237,29.297,25.391,60.059,33.691,20.508
1578400667.241,29.297,25.391,59.082,33.203,50.293
1578400667.245,29.297,26.855,56.641,38.574,49.316
1578400667.249,20.508,23.926,62.500,41.992,50.293
1578400667.253,1.953,20.020,57.129,30.273,56.641
1578400667.257,14.160,20.996,51.270,30.273,38.086
1578400667.261,29.297,30.762,59.570,37.598,82.520
1578400667.265,25.391,29.785,60.059,37.598,106.934
1578400667.269,20.508,24.902,52.246,39.551,61.035
1578400667.273,14.648,28.320,51.758,38.574,38.086
1578400667.277,16.113,31.738,46.387,31.250,-14.648
1578400667.280,27.344,38.086,39.062,31.250,0.488
1578400667.284,29.297,43.457,41.016,36.133,24.414
1578400667.288,22.461,38.574,38.086,40.527,-49.316
1578400667.292,19.531,32.715,39.551,37.598,-41.016
1578400667.296,25.391,32.715,51.270,34.668,10.742
1578400667.300,39.062,34.668,54.688,38.086,-1.953
1578400667.304,38.086,36.133,45.898,39.062,21.973
1578400667.308,30.273,29.297,43.945,41.504,5.371
1578400667.312,23.926,21.484,45.410,40.527,-23.926
1578400667.316,18.066,25.391,43.457,33.203,33.203
1578400667.320,22.949,31.250,49.316,32.715,42.480
1578400667.323,32.227,33.203,46.387,41.016,63.477
1578400667.327,31.738,38.574,40.527,41.016,80.078
1578400667.331,32.227,37.598,42.480,42.480,36.621
1578400667.335,38.574,31.250,44.434,41.992,34.180
1578400667.339,42.969,33.691,42.480,35.156,56.641
1578400667.343,45.898,34.180,39.062,39.551,23.438
1578400667.347,41.992,32.715,37.598,43.457,-4.883
1578400667.351,37.598,37.109,36.621,41.992,16.602
1578400667.355,42.480,35.156,37.109,40.039,-30.273
1578400667.359,48.340,30.273,36.621,34.180,-24.902
1578400667.362,57.617,38.086,36.133,39.062,31.738
1578400667.366,53.711,41.992,33.203,43.457,20.020
1578400667.370,47.363,42.480,41.016,42.969,42.480
1578400667.374,50.293,47.852,42.480,42.480,35.645
1578400667.378,49.805,45.410,35.645,38.574,-28.320
1578400667.382,56.152,45.410,36.621,41.504,-23.926
1578400667.386,57.129,49.316,38.086,49.805,15.137
1578400667.390,52.734,52.246,42.480,54.199,46.387
1578400667.394,50.781,47.852,42.969,52.734,61.523
1578400667.398,52.246,43.457,46.875,51.758,87.402
1578400667.402,57.129,50.293,49.805,53.223,113.770
1578400667.405,50.293,48.828,39.551,45.898,43.457
1578400667.409,37.109,41.992,33.691,40.527,17.090
1578400667.413,33.203,41.504,33.691,41.016,92.285
1578400667.417,44.922,36.133,29.785,34.668,104.980
1578400667.421,55.664,39.551,33.691,35.645,53.711
1578400667.425,48.340,49.805,43.945,45.410,15.625
1578400667.429,44.434,46.875,41.016,49.805,34.668
1578400667.433,45.898,40.039,38.574,46.875,20.996
1578400667.437,46.875,39.551,39.062,41.992,54.688
1578400667.441,47.363,34.668,33.203,38.086,61.523
1578400667.445,47.363,29.297,30.762,41.504,30.762
1578400667.448,40.527,38.574,31.250,46.387,3.418
1578400667.452,32.227,43.457,34.180,43.457,-8.789
1578400667.456,31.250,43.457,37.109,36.621,48.340
1578400667.460,36.621,39.062,41.504,32.227,16.602
1578400667.464,37.598,34.668,43.457,41.016,26.367
1578400667.468,28.809,41.992,44.434,47.363,28.809
1578400667.472,19.043,37.598,44.434,41.992,13.672
1578400667.476,21.484,30.273,37.109,36.621,96.680
1578400667.480,34.668,34.668,30.762,29.785,67.871
1578400667.484,41.016,39.551,29.297,35.156,-2.441
1578400667.487,38.574,44.922,36.133,46.387,40.527
1578400667.491,37.109,47.852,42.969,45.410,54.199
1578400667.495,43.457,40.039,33.691,37.109,24.414
1578400667.499,51.758,34.668,27.832,32.715,3.906
1578400667.503,57.129,40.527,29.785,39.062,41.504
1578400667.507,53.711,34.668,30.273,44.434,35.645
1578400667.511,48.828,25.391,32.227,39.551,-14.160
1578400667.515,50.781,36.133,34.180,36.621,-0.977
1578400667.519,62.988,40.527,27.832,49.316,17.578
1578400667.523,77.637,30.762,30.273,65.430,-13.184
1578400667.527,57.617,34.180,41.992,52.246,-21.973
1578400667.530,29.297,49.805,30.762,32.227,70.312
1578400667.534,35.156,47.363,23.926,33.203,79.102
1578400667.538,59.570,35.156,28.809,45.898,52.734
1578400667.542,65.430,33.203,28.809,47.363,62.012
1578400667.546,60.547,34.180,25.879,52.734,33.691
1578400667.550,56.152,32.227,27.832,56.641,6.836
1578400667.554,46.875,29.297,32.715,42.969,22.949
1578400667.558,52.734,31.250,27.344,36.621,37.598
1578400667.562,62.012,38.086,25.879,47.363,12.207
1578400667.566,61.035,38.574,30.273,56.641,-1.953
1578400667.570,53.711,38.574,25.879,56.641,47.363
1578400667.573,51.758,39.062,22.461,54.199,20.020
1578400667.577,62.500,32.227,24.414,51.270,-14.648
1578400667.581,70.312,32.227,26.367,49.316,44.434
1578400667.585,62.500,40.527,25.391,46.387,44.922
1578400667.589,51.758,40.527,31.738,49.316,5.371
1578400667.593,46.387,37.109,34.180,45.898,4.883
1578400667.597,48.828,39.551,37.109,37.598,38.574
1578400667.601,54.199,45.898,40.527,38.574,40.039
1578400667.605,51.270,47.363,38.574,43.945,75.684
1578400667.609,45.410,49.805,35.156,46.387,55.664
1578400667.612,42.480,54.199,37.109,45.410,31.250
1578400667.616,48.340,55.176,45.410,43.945,24.902
1578400667.620,56.641,49.316,42.480,43.457,53.711
1578400667.624,53.711,43.457,36.621,43.945,108.887
1578400667.628,42.969,40.527,35.645,43.945,68.359
1578400667.632,35.645,39.551,37.109,41.016,20.996
1578400667.636,36.621,42.480,38.574,32.227,23.926
1578400667.640,44.922,44.434,33.203,30.762,37.598
1578400667.644,43.945,41.504,32.715,35.156,14.648
1578400667.648,31.738,37.109,36.621,41.504,33.203
1578400667.652,26.367,37.109,33.691,43.945,41.016
1578400667.655,28.320,38.086,33.203,35.645,21.484
1578400667.659,33.691,34.668,38.086,34.668,77.148
1578400667.663,30.762,31.738,38.574,30.762,74.707
1578400667.667,24.414,26.855,36.621,34.668,52.734
1578400667.671,24.414,22.949,37.109,40.527,82.031
1578400667.675,29.297,21.973,39.551,32.715,19.531
1578400667.679,42.480,31.250,35.156,31.250,-80.078
1578400667.683,50.293,37.109,29.785,33.691,-63.965
1578400667.687,48.340,36.621,29.297,38.574,28.320
1578400667.691,42.969,35.645,31.250,38.574,40.527
1578400667.695,39.062,40.039,38.086,41.504,-18.066
1578400667.698,42.969,38.574,42.480,46.387,-17.090
1578400667.702,48.828,37.109,40.527,41.016,7.324
1578400667.706,41.992,47.363,38.086,40.039,10.254
1578400667.710,34.668,45.410,35.156,43.457,34.668
1578400667.714,34.180,36.133,30.762,37.598,33.203
1578400667.718,39.551,39.551,32.715,29.297,-7.812
1578400667.722,43.945,41.504,39.551,31.738,37.109
1578400667.726,45.898,39.062,43.945,48.828,75.195
1578400667.730,40.039,41.992,41.992,51.758,78.613
1578400667.734,23.926,47.852,31.738,25.879,73.242
1578400667.737,23.926,48.828,33.691,12.695,39.062
1578400667.741,35.645,41.016,38.574,23.438,64.941
1578400667.745,35.156,38.574,33.691,30.762,29.297
1578400667.749,33.203,41.504,27.832,32.715,22.949
1578400667.753,28.809,40.039,24.414,32.227,31.250
1578400667.757,31.738,38.086,23.438,26.855,11.719
1578400667.761,46.875,40.039,24.414,31.250,51.270
1578400667.765,43.945,40.039,27.344,37.109,55.664
1578400667.769,38.574,35.156,29.297,43.457,57.617
1578400667.773,38.086,31.738,30.762,45.410,27.832
1578400667.777,41.992,33.691,27.344,35.645,43.945
1578400667.780,56.152,31.250,24.902,34.180,61.523
1578400667.784,59.082,30.273,28.809,39.062,32.227
1578400667.788,57.129,40.039,30.273,48.340,23.438
1578400667.792,59.082,45.898,30.273,47.852,70.312
1578400667.796,57.617,44.434,32.715,35.645,99.609
1578400667.800,68.359,45.410,40.527,42.969,35.645
1578400667.804,71.777,42.969,41.504,51.758,-5.371
1578400667.808,51.270,32.227,35.645,45.898,2.930
1578400667.812,42.969,26.367,34.668,44.922,31.738
1578400667.816,45.898,27.832,31.250,38.574,27.832
1578400667.820,46.875,34.668,33.203,30.273,14.160
1578400667.823,50.293,32.227,31.738,33.691,-16.602
1578400667.827,40.527,30.273,28.809,36.133,-22.949
1578400667.831,34.180,34.180,32.715,37.109,14.160
1578400667.835,40.039,32.227,33.203,36.621,33.691
1578400667.839,43.457,31.738,30.762,28.809,-6.348
1578400667.843,46.387,33.203,27.344,30.762,-19.531
1578400667.847,42.480,33.203,24.414,40.039,25.879
1578400667.851,29.785,36.133,25.879,39.551,52.246
1578400667.855,22.949,31.250,29.297,30.273,48.340
1578400667.859,28.809,24.902,28.809,27.344,-15.137
1578400667.862,33.203,34.668,34.668,33.691,-9.766
1578400667.866,29.785,38.574,42.480,40.527,44.434
1578400667.870,24.902,33.203,40.039,40.039,34.180
1578400667.874,27.832,32.227,31.738,34.180,37.109
1578400667.878,37.598,37.598,31.738,29.785,55.176
1578400667.882,43.945,39.062,34.180,25.879,42.480
1578400667.886,36.621,36.621,31.250,24.414,17.578
1578400667.890,27.832,34.668,35.156,29.785,54.199
1578400667.894,30.762,31.738,39.062,28.809,53.711
1578400667.898,40.039,31.738,38.086,24.902,73.730
1578400667.902,49.316,33.691,38.086,20.508,129.883
1578400667.905,43.945,36.133,38.574,21.973,97.168
1578400667.909,35.645,36.133,37.598,32.227,69.336
1578400667.913,37.109,34.668,35.645,29.297,78.125
1578400667.917,39.062,36.621,34.180,26.367,18.066
1578400667.921,44.922,42.480,28.809,36.133,10.742
1578400667.925,41.504,46.387,29.297,36.133,50.781
1578400667.929,36.133,39.551,33.691,35.645,68.848
1578400667.933,39.551,36.133,33.203,42.480,8.301
1578400667.937,44.434,45.898,28.320,33.203,-11.230
1578400667.941,43.945,54.199,30.762,14.160,14.648
1578400667.945,35.645,53.223,34.180,16.113,-0.977
1578400667.948,32.715,47.363,33.203,27.344,7.812
1578400667.952,30.273,41.504,34.668,28.320,26.855
1578400667.956,30.273,41.992,33.203,24.902,15.625
1578400667.960,36.133,45.410,36.133,24.414,6.348
1578400667.964,37.598,43.457,37.598,30.762,20.996
1578400667.968,27.832,35.156,33.691,31.250,90.332
1578400667.972,23.438,31.250,32.715,26.367,116.699
1578400667.976,28.809,33.203,34.668,23.438,92.773
1578400667.980,38.086,40.039,37.598,26.855,61.523
1578400667.984,44.922,36.133,35.156,35.156,68.359
1578400667.987,35.645,27.344,28.809,33.691,79.102
1578400667.991,27.344,31.738,29.785,29.785,34.668
1578400667.995,37.598,38.086,33.691,30.273,9.766
1578400667.999,47.363,35.156,38.574,27.832,-21.973
1578400668.003,52.734,35.645,39.062,31.738,-27.832
1578400668.007,48.828,37.109,38.574,34.180,63.477
1578400668.011,39.062,33.203,34.668,37.109,96.191
1578400668.015,42.480,35.645,28.809,36.133,43.945
1578400668.019,44.922,38.574,33.203,29.785,39.551
1578400668.023,42.969,36.621,37.598,34.668,27.832
1578400668.027,39.551,31.738,38.086,41.504,28.320
1578400668.030,30.762,29.785,32.715,38.086,78.613
1578400668.034,28.320,34.180,29.297,31.250,64.941
1578400668.038,35.645,42.969,35.645,28.320,58.594
1578400668.042,43.945,45.410,36.133,33.691,120.117
1578400668.046,46.387,40.527,32.227,38.086,85.938
1578400668.050,43.457,37.598,38.086,42.480,39.062
1578400668.054,44.922,40.527,44.922,42.969,60.547
1578400668.058,47.363,44.434,42.969,33.203,24.902
1578400668.062,50.293,41.992,36.621,33.691,7.812
1578400668.066,50.781,38.574,35.156,43.457,51.270
1578400668.070,34.180,36.621,32.715,41.992,82.031
1578400668.073,31.738,37.109,33.203,39.551,65.918
1578400668.077,41.992,44.434,32.715,32.715,59.082
1578400668.081,46.387,47.363,31.738,29.297,31.250
1578400668.085,43.457,41.504,39.551,35.645,19.531
1578400668.089,28.320,34.180,42.969,35.156,9.277
1578400668.093,20.508,29.297,40.527,28.320,13.184
1578400668.097,27.832,31.250,37.598,22.949,34.180
1578400668.101,36.621,36.133,35.156,22.461,22.461
1578400668.105,35.645,35.156,32.715,29.297,23.926
1578400668.109,34.668,27.344,26.855,32.715,15.137
1578400668.112,35.156,26.855,30.762,28.809,15.625
1578400668.116,40.527,33.203,42.969,25.391,37.109
1578400668.120,52.246,35.156,46.875,26.367,11.230
1578400668.124,52.246,34.668,43.457,25.879,32.715
1578400668.128,45.410,37.598,41.016,29.785,19.531
1578400668.132,41.992,33.203,44.434,34.668,-14.160
1578400668.136,44.434,32.715,42.969,29.785,22.461
1578400668.140,50.293,35.156,36.133,31.250,45.898
1578400668.144,48.340,35.645,32.227,39.062,45.898
1578400668.148,41.992,40.039,37.598,41.016,98.633
1578400668.152,37.598,40.527,39.062,34.180,99.121
1578400668.155,40.039,38.086,38.574,25.879,47.363
1578400668.159,40.039,38.574,37.109,25.879,43.457
1578400668.163,38.086,38.574,37.109,30.273,23.438
1578400668.167,39.551,37.109,36.621,33.203,28.320
1578400668.171,39.062,40.527,37.109,39.551,61.523
1578400668.175,38.086,40.527,39.062,39.062,52.734
1578400668.179,44.434,38.086,37.598,36.621,33.691
1578400668.183,48.340,37.598,38.086,37.598,26.367
1578400668.187,36.133,41.016,39.062,33.203,-9.766
1578400668.191,22.949,45.410,36.621,29.785,-16.113
1578400668.195,23.438,47.363,34.180,24.902,45.898
1578400668.198,34.180,48.828,31.250,20.996,55.664
1578400668.202,39.551,46.875,32.227,30.762,35.645
1578400668.206,28.320,40.039,39.551,38.086,7.812
1578400668.210,11.719,35.156,41.016,31.250,30.762
1578400668.214,13.672,37.598,37.109,23.926,84.961
1578400668.218,25.879,42.480,35.156,22.949,9.277
1578400668.222,27.832,41.504,37.109,29.785,-12.695
1578400668.226,25.879,38.086,40.039,38.086,51.758
1578400668.230,20.996,38.086,41.016,36.621,52.246
1578400668.234,28.809,40.527,40.527,36.133,55.176
1578400668.237,46.875,43.457,42.969,37.598,51.270
1578400668.241,51.758,38.574,43.457,40.039,30.762
1578400668.245,46.875,30.273,41.016,44.434,32.715
1578400668.249,41.992,26.855,38.086,50.293,36.133
1578400668.253,40.039,27.344,41.016,49.805,30.273
1578400668.257,49.805,29.785,45.898,44.434,11.719
1578400668.261,58.594,38.574,46.875,43.945,-3.418
1578400668.265,51.758,44.434,44.434,48.340,11.230
1578400668.269,37.598,43.945,46.387,45.410,3.418
1578400668.273,33.691,42.480,46.875,37.109,-19.043
1578400668.277,38.086,43.945,47.363,37.598,19.531
1578400668.280,41.016,38.574,46.387,39.062,47.363
1578400668.284,41.992,36.621,39.551,41.016,71.777
1578400668.288,31.738,38.086,35.156,39.062,84.961
1578400668.292,23.438,32.227,37.109,35.645,59.082
1578400668.296,30.762,33.691,38.574,35.645,44.922
1578400668.300,41.504,37.598,35.156,33.203,13.184
1578400668.304,38.086,33.691,41.504,34.180,-15.137
1578400668.308,30.762,39.551,47.363,39.062,-20.996
1578400668.312,24.902,42.480,43.457,33.203,-20.508
1578400668.316,22.949,34.180,40.039,22.949,13.672
1578400668.320,35.156,31.250,38.574,26.367,21.973
1578400668.323,38.086,32.715,36.621,31.738,19.043
1578400668.327,28.809,36.133,31.738,33.203,45.410
1578400668.331,30.273,37.598,32.715,35.156,23.438
1578400668.335,37.598,38.086,41.016,34.180,-21.484
1578400668.339,44.434,40.039,46.875,36.621,-48.828
1578400668.343,50.293,40.039,46.875,41.016,0.488
1578400668.347,45.898,38.574,38.574,43.945,36.133
1578400668.351,35.645,37.598,34.668,43.945,56.641
1578400668.355,39.062,40.039,41.504,44.434,41.992
1578400668.359,46.387,38.574,42.969,42.969,20.996
1578400668.362,49.805,38.574,39.062,43.457,34.180
1578400668.366,42.969,36.621,37.109,41.504,15.625
1578400668.370,29.297,28.809,35.645,37.598,45.410
1578400668.374,23.926,29.297,37.109,33.203,47.363
1578400668.378,24.414,35.156,32.227,26.855,-15.137
1578400668.382,32.227,39.551,25.391,29.785,-32.227
1578400668.386,29.297,34.668,29.785,37.598,31.738
1578400668.390,19.531,34.180,33.203,34.180,42.969
1578400668.394,19.531,39.551,31.250,25.879,-18.555
1578400668.398,24.414,39.551,28.809,23.438,1.465
1578400668.402,31.250,37.598,32.227,22.949,-15.625
1578400668.405,33.203,38.574,34.180,25.879,30.273
1578400668.409,25.391,32.715,34.668,25.879,81.055
1578400668.413,21.973,24.902,36.133,25.391,32.715
1578400668.417,36.133,28.809,35.156,29.297,61.035
1578400668.421,44.434,35.156,34.668,28.809,83.496
1578400668.425,42.969,37.598,34.668,31.250,80.078
1578400668.429,36.133,38.574,39.062,37.109,27.344
1578400668.433,35.645,41.504,35.156,37.109,0.488
1578400668.437,45.410,38.574,29.297,33.203,30.273
1578400668.441,50.781,40.527,32.715,34.668,13.672
1578400668.445,48.828,47.363,31.738,40.527,11.719
1578400668.448,40.527,43.457,30.762,42.480,25.879
1578400668.452,39.551,41.504,28.320,39.551,12.695
1578400668.456,42.480,43.457,25.879,33.203,-23.926
1578400668.460,45.898,44.434,33.691,35.156,-12.695
1578400668.464,47.852,43.457,32.227,38.086,42.480
1578400668.468,41.016,37.598,27.344,41.504,36.133
1578400668.472,34.668,40.039,25.879,42.480,25.391
1578400668.476,37.598,38.574,30.273,34.668,49.805
1578400668.480,46.875,32.227,37.598,33.203,82.520
1578400668.484,44.434,33.203,31.250,38.086,128.418
1578400668.487,40.039,35.156,27.832,45.410,121.582
1578400668.491,34.668,32.715,36.621,39.551,80.566
1578400668.495,35.156,29.297,37.109,29.297,79.590
1578400668.499,39.551,31.250,40.039,25.391,33.691
1578400668.503,35.156,34.668,44.434,25.391,10.742
1578400668.507,28.320,36.621,41.504,29.297,41.992
1578400668.511,20.996,33.691,43.945,25.879,32.227
1578400668.515,24.902,34.668,42.480,22.949,32.227
1578400668.519,34.668,40.527,37.109,29.297,33.203
1578400668.523,46.875,43.457,33.691,35.645,18.555
1578400668.527,48.340,43.945,32.227,37.598,31.250
1578400668.530,37.598,44.434,33.691,41.992,78.613
1578400668.534,34.180,41.016,36.621,37.598,97.656
1578400668.538,43.945,34.668,35.156,41.016,43.457
1578400668.542,61.035,36.133,35.156,54.688,5.371
1578400668.546,42.969,40.039,38.086,41.992,-14.160
1578400668.550,17.578,42.480,36.621,26.367,22.461
1578400668.554,20.508,45.410,30.762,26.855,69.824
1578400668.558,28.809,46.875,31.738,25.879,34.180
1578400668.562,41.016,48.340,30.762,27.344,30.273
1578400668.566,42.480,48.828,31.738,31.738,76.660
1578400668.570,35.645,43.457,33.203,29.297,101.074
1578400668.573,36.133,44.922,28.809,28.809,32.715
1578400668.577,39.551,48.828,29.297,22.949,-8.301
1578400668.581,48.340,41.992,31.738,24.902,15.137
1578400668.585,44.922,39.062,32.715,28.809,97.168
1578400668.589,31.738,35.156,35.156,29.785,96.191
1578400668.593,30.762,34.180,33.203,33.691,12.207
1578400668.597,37.598,41.992,28.809,30.273,5.371
1578400668.601,43.945,46.875,34.180,30.762,-12.207
1578400668.605,37.109,49.805,36.621,31.250,26.367
1578400668.609,28.809,52.734,34.668,37.109,75.684
1578400668.612,28.320,45.410,35.645,32.227,43.457
1578400668.616,35.645,46.387,40.039,22.461,21.484
1578400668.620,42.480,45.410,38.086,22.949,32.715
1578400668.624,40.527,38.086,33.203,27.832,32.227
1578400668.628,30.762,36.621,35.156,33.203,76.172
1578400668.632,26.855,34.180,35.156,29.297,82.520
1578400668.636,35.156,33.691,29.297,27.344,2.441
1578400668.640,43.945,29.785,33.691,31.250,-28.809
1578400668.644,46.875,36.621,38.086,36.133,-14.160
1578400668.648,45.410,40.039,34.668,40.527,-1.953
1578400668.652,40.039,41.992,33.691,41.016,18.555
1578400668.655,38.086,41.992,33.203,35.645,-9.277
1578400668.659,50.293,41.992,32.715,36.133,-39.551
1578400668.663,53.711,42.480,34.668,39.551,-1.953
1578400668.667,43.457,38.574,35.645,41.992,12.695
1578400668.671,38.086,39.062,38.086,39.551,19.043
1578400668.675,39.062,43.457,32.715,27.344,70.312
1578400668.679,44.434,41.992,29.297,22.949,111.328
1578400668.683,47.852,41.016,36.133,29.785,60.059
1578400668.687,35.645,41.504,37.109,35.156,-5.371
1578400668.691,28.809,41.504,38.574,37.109,18.555
1578400668.695,30.273,46.387,36.133,30.762,66.895
1578400668.698,35.156,46.875,34.668,31.738,54.199
1578400668.702,43.945,42.480,38.574,40.527,-25.879
1578400668.706,31.738,35.645,33.691,39.062,-2.930
1578400668.710,19.043,33.691,31.738,35.645,10.742
1578400668.714,18.555,42.480,30.762,28.320,43.457
1578400668.718,24.902,43.945,27.344,21.484,56.152
1578400668.722,34.668,41.992,30.762,21.973,-0.488
1578400668.726,30.273,39.062,30.273,25.391,-13.184
1578400668.730,25.391,39.551,28.809,27.832,23.926
1578400668.734,28.320,37.109,31.250,24.902,97.168
1578400668.737,35.156,29.785,32.227,19.043,57.617
1578400668.741,41.016,37.109,34.668,22.461,80.078
1578400668.745,42.480,43.945,30.762,33.203,112.793
1578400668.749,39.551,38.086,32.715,38.086,23.926
1578400668.753,34.668,40.039,39.551,29.785,20.020
1578400668.757,37.598,42.969,31.738,21.973,84.961
1578400668.761,44.922,38.086,33.691,24.902,98.145
1578400668.765,37.598,34.180,38.574,26.367,65.430
1578400668.769,24.902,29.785,32.227,24.902,67.871
1578400668.773,20.020,32.715,33.691,26.367,99.121
1578400668.777,25.391,35.156,37.598,22.461,45.410
1578400668.780,33.691,30.762,39.551,20.996,41.016
1578400668.784,31.250,31.738,36.133,30.762,38.574
1578400668.788,36.621,35.156,29.785,48.828,42.969
1578400668.792,32.227,45.410,25.391,39.551,23.438
1578400668.796,24.414,51.270,28.320,20.020,5.371
1578400668.800,39.551,49.316,28.809,26.367,20.020
1578400668.804,44.434,48.340,25.879,35.645,-21.973
1578400668.808,39.062,43.945,25.879,39.551,-29.297
1578400668.812,34.180,41.504,21.973,32.715,15.625
1578400668.816,35.645,47.363,19.531,23.438,49.316
1578400668.820,39.551,51.270,16.602,20.508,2.930
1578400668.823,40.039,50.781,12.695,21.973,-34.668
1578400668.827,36.621,52.246,11.230,23.438,28.809
1578400668.831,32.715,51.758,7.812,14.160,86.426
1578400668.835,40.039,49.805,3.906,15.137,83.496
1578400668.839,49.316,48.340,4.883,22.461,93.262
1578400668.843,51.758,47.852,8.301,24.414,62.012
1578400668.847,41.992,45.410,6.348,30.273,44.434
1578400668.851,39.062,44.434,9.766,37.109,54.199
1578400668.855,42.969,44.922,13.672,35.156,7.324
1578400668.859,50.781,48.828,15.625,33.203,-31.250
1578400668.862,59.570,49.316,18.066,37.598,41.992
1578400668.866,55.176,51.270,18.555,42.969,107.910
1578400668.870,51.758,48.340,16.602,35.645,52.246
1578400668.874,52.734,42.480,16.602,27.344,19.043
1578400668.878,55.664,46.387,24.414,34.180,2.930
1578400668.882,58.594,43.945,28.320,42.969,-22.461
1578400668.886,59.570,45.898,25.879,51.270,-2.930
1578400668.890,51.270,47.363,27.344,49.805,12.207
1578400668.894,42.969,43.945,28.809,35.156,26.855
1578400668.898,50.293,47.852,30.273,36.133,41.992
1578400668.902,57.617,46.875,34.180,45.410,53.711
1578400668.905,52.246,44.922,34.180,42.969,75.684
1578400668.909,40.527,42.480,30.273,42.969,47.852
1578400668.913,38.086,39.551,32.715,40.527,-7.812
1578400668.917,49.805,38.574,30.762,36.621,-1.465
1578400668.921,52.246,34.668,26.367,37.598,26.855
1578400668.925,41.992,35.156,30.273,42.969,15.137
1578400668.929,36.133,35.156,33.691,44.922,78.125
1578400668.933,34.180,39.062,35.156,39.062,72.754
1578400668.937,38.574,40.527,38.086,34.668,-14.160
1578400668.941,49.316,39.062,37.598,37.598,1.465
1578400668.945,45.410,41.992,37.598,38.086,64.453
1578400668.948,36.621,41.016,35.156,38.086,54.688
1578400668.952,38.086,42.480,33.203,38.086,10.254
1578400668.956,46.875,48.828,32.715,36.133,78.125
1578400668.960,58.105,50.293,30.273,36.133,55.176
1578400668.964,54.688,52.734,29.297,35.645,17.578
1578400668.968,45.410,44.922,26.367,38.086,41.016
1578400668.972,39.062,32.715,25.391,35.156,-22.949
1578400668.976,36.133,31.250,27.344,23.926,-27.832
1578400668.980,48.828,31.738,36.133,28.320,46.387
1578400668.984,56.152,32.227,41.016,38.086,67.383
1578400668.987,43.457,33.203,37.109,37.598,75.684
1578400668.991,34.668,31.250,36.621,35.645,20.508
1578400668.995,36.621,30.273,37.109,29.785,-5.859
1578400668.999,44.434,36.621,33.691,29.785,53.223
1578400669.003,47.363,40.039,25.391,38.574,70.312
1578400669.007,40.039,36.621,27.344,34.668,64.941
1578400669.011,34.180,33.691,31.250,26.855,87.891
1578400669.015,36.133,31.738,28.809,29.297,83.496
1578400669.019,41.992,34.180,33.203,31.738,41.992
1578400669.023,42.969,33.691,37.109,36.133,22.461
1578400669.027,32.715,33.203,37.109,39.551,20.508
1578400669.030,21.973,29.785,35.156,35.156,31.738
1578400669.034,23.926,29.785,29.785,30.762,34.668
1578400669.038,34.668,39.551,27.344,30.273,28.809
1578400669.042,41.504,40.039,28.809,31.250,45.410
1578400669.046,39.062,37.109,28.320,38.086,76.660
1578400669.050,32.227,35.645,34.668,38.574,77.637
1578400669.054,30.762,35.156,39.551,31.738,42.480
1578400669.058,34.180,44.922,39.551,31.738,-1.465
1578400669.062,40.527,51.758,39.551,38.574,30.762
1578400669.066,40.527,44.922,37.109,45.410,87.402
1578400669.070,34.668,43.945,39.062,46.875,52.246
1578400669.073,35.156,48.340,33.203,40.527,36.621
1578400669.077,44.922,45.898,24.902,35.645,83.984
1578400669.081,54.199,45.410,31.250,40.039,74.219
1578400669.085,47.852,49.805,34.180,43.945,67.871
1578400669.089,41.504,49.316,34.180,40.039,67.383
1578400669.093,40.527,41.992,34.668,35.645,42.480
1578400669.097,41.016,40.039,35.645,29.297,40.527
1578400669.101,44.434,42.480,35.156,24.902,65.430
1578400669.105,41.504,41.504,36.621,30.762,61.035
1578400669.109,30.762,37.109,42.480,36.133,13.184
1578400669.112,26.367,37.598,32.715,37.598,28.320
1578400669.116,33.203,40.039,25.391,34.668,41.016
1578400669.120,40.527,42.969,30.273,30.762,-4.395
1578400669.124,38.086,35.645,33.691,37.109,-38.086
1578400669.128,24.902,31.250,37.109,38.574,-10.254
1578400669.132,18.555,40.527,37.109,32.715,21.973
1578400669.136,26.367,46.387,35.645,30.762,4.883
1578400669.140,39.551,43.945,39.551,29.297,24.902
1578400669.144,37.109,35.645,35.645,29.297,64.453
1578400669.148,27.832,41.992,30.762,30.762,89.844
1578400669.152,25.879,41.992,39.062,29.785,79.102
1578400669.155,34.180,35.156,38.086,27.344,37.109
1578400669.159,45.410,42.480,30.762,29.785,49.316
1578400669.163,43.945,43.945,28.320,34.180,56.641
1578400669.167,44.922,41.992,26.367,39.551,17.578
1578400669.171,46.387,43.457,23.438,38.574,14.160
1578400669.175,43.945,41.992,26.855,29.785,57.617
1578400669.179,50.781,40.039,30.273,25.879,44.922
1578400669.183,55.176,46.387,31.250,34.180,4.395
1578400669.187,48.340,50.293,30.273,39.551,27.344
1578400669.191,35.156,48.340,31.250,36.133,44.922
1578400669.195,36.133,48.340,36.133,34.180,32.715
1578400669.198,44.434,44.922,40.039,31.738,31.738
1578400669.202,45.410,42.480,41.992,30.273,61.035
1578400669.206,35.645,46.387,41.992,32.227,81.055
1578400669.210,24.414,43.945,36.621,31.738,21.484
1578400669.214,28.320,40.039,33.203,28.320,56.641
1578400669.218,42.480,44.434,38.086,28.809,75.684
1578400669.222,49.805,46.875,39.062,32.715,-8.789
1578400669.226,39.062,40.039,37.109,32.227,19.531
1578400669.230,34.180,36.621,35.156,31.738,14.160
1578400669.234,45.898,37.598,36.621,35.645,-4.883
1578400669.237,53.223,34.180,44.922,39.062,-8.301
1578400669.241,38.574,33.691,51.758,28.320,8.301
1578400669.245,19.531,37.109,53.223,16.113,61.523
1578400669.249,1.465,41.016,49.805,5.859,29.297
1578400669.253,-5.859,42.480,51.758,4.395,-19.043
1578400669.257,-3.906,39.551,62.012,0.000,9.766
1578400669.261,-10.742,33.691,70.312,-11.719,74.707
1578400669.265,-16.113,24.414,73.730,-10.742,59.570
1578400669.269,-27.832,20.508,75.684,-12.207,30.762
1578400669.273,-38.086,19.531,72.266,-10.742,65.430
1578400669.277,-41.016,21.973,72.754,-15.625,20.020
1578400669.280,-30.762,19.043,69.336,-12.207,-23.438
1578400669.284,-27.832,15.625,70.312,-4.883,32.715
1578400669.288,-34.668,20.020,74.707,-7.324,64.453
1578400669.292,-24.414,21.973,67.871,-6.836,60.547
1578400669.296,-13.672,24.414,68.848,-5.371,17.578
1578400669.300,-7.812,25.879,60.547,0.977,-10.254
1578400669.304,-2.930,26.367,50.781,9.766,14.648
1578400669.308,-2.441,26.855,54.688,15.137,47.363
1578400669.312,-3.418,23.438,54.199,15.137,33.203
1578400669.316,4.395,27.832,51.270,18.555,8.789
1578400669.320,24.414,39.062,55.176,24.902,22.461
1578400669.323,33.203,41.992,58.105,31.250,53.223
1578400669.327,25.391,34.180,57.617,33.691,64.941
1578400669.331,19.043,31.250,53.223,32.227,8.789
1578400669.335,23.438,36.621,48.828,30.762,-44.922
1578400669.339,28.320,36.621,50.293,26.367,-11.719
1578400669.343,25.391,33.203,51.758,34.668,36.133
1578400669.347,17.578,29.297,54.199,44.434,38.086
1578400669.351,16.113,30.762,49.316,40.039,21.973
1578400669.355,26.855,35.156,40.527,35.645,11.719
1578400669.359,36.133,35.645,39.551,39.062,-45.410
1578400669.362,38.574,36.133,41.504,48.828,-23.438
1578400669.366,37.109,35.645,49.805,56.152,-0.977
1578400669.370,34.668,40.039,47.852,54.199,-13.184
1578400669.374,33.203,41.992,42.480,49.316,-20.020
1578400669.378,39.062,39.062,44.922,42.969,32.715
1578400669.382,45.410,39.551,44.922,35.645,108.398
1578400669.386,42.969,39.551,41.504,39.062,93.750
1578400669.390,30.273,37.598,31.738,38.086,42.969
1578400669.394,35.156,35.156,33.203,34.180,40.039
1578400669.398,46.875,39.551,40.039,36.133,64.453
1578400669.402,46.875,41.992,35.645,34.668,46.875
1578400669.405,45.410,30.762,33.203,38.574,73.730
1578400669.409,38.574,29.785,31.738,41.504,68.848
1578400669.413,32.715,33.691,37.598,32.227,17.578
1578400669.417,29.785,31.738,39.062,25.879,36.133
1578400669.421,37.109,26.367,35.645,28.809,70.312
1578400669.425,39.062,32.227,34.180,31.738,98.145
1578400669.429,28.320,42.969,32.715,26.367,81.055
1578400669.433,24.902,42.969,36.621,24.902,8.789
1578400669.437,30.273,43.945,39.062,22.949,49.316
1578400669.441,36.621,43.457,35.645,17.578,56.152
1578400669.445,32.227,39.062,30.273,18.555,47.363
1578400669.448,23.926,30.273,32.227,24.902,-1.465
1578400669.452,23.438,34.180,35.645,25.879,-12.695
1578400669.456,25.879,43.945,27.344,24.902,17.578
1578400669.460,34.180,40.039,27.344,22.461,41.504
1578400669.464,36.621,38.086,34.668,24.414,71.777
1578400669.468,21.484,42.480,35.645,31.738,13.672
1578400669.472,19.531,43.457,34.668,30.762,52.246
1578400669.476,31.738,41.992,34.180,24.902,71.777
1578400669.480,46.387,45.410,37.598,31.738,-22.461
1578400669.484,57.129,45.898,38.086,44.434,-37.109
1578400669.487,50.781,40.527,40.039,48.828,28.809
1578400669.491,46.387,41.016,39.062,41.992,46.875
1578400669.495,51.758,39.062,36.133,39.062,-4.883
1578400669.499,55.664,38.574,38.574,39.062,18.066
1578400669.503,49.316,41.504,38.574,37.109,39.551
1578400669.507,35.156,42.480,35.645,36.133,47.363
1578400669.511,26.855,41.016,32.227,33.691,-17.578
1578400669.515,30.762,44.434,34.668,25.879,-95.215
1578400669.519,40.039,47.363,35.156,23.438,2.930
1578400669.523,40.039,46.875,31.250,31.250,75.195
1578400669.527,33.203,45.410,32.715,33.691,57.129
1578400669.530,26.855,41.992,32.715,28.320,85.449
1578400669.534,34.668,42.969,34.180,22.949,67.383
1578400669.538,43.945,49.316,41.016,26.367,23.926
1578400669.542,41.992,49.805,42.969,36.133,26.367
1578400669.546,38.086,48.828,39.551,41.992,83.984
1578400669.550,37.109,49.316,38.574,40.039,151.855
1578400669.554,53.711,35.156,40.039,53.711,58.105
1578400669.558,66.895,37.109,37.598,58.594,-0.488
1578400669.562,50.293,59.570,33.691,30.762,20.996
1578400669.566,33.203,61.523,35.645,21.973,37.598
1578400669.570,24.414,51.270,41.992,27.344,54.199
1578400669.573,18.066,48.340,42.969,18.555,68.359
1578400669.577,11.230,54.688,35.645,-4.883,19.043
1578400669.581,14.160,60.059,34.180,-3.418,-36.133
1578400669.585,6.836,54.688,41.504,1.953,45.898
1578400669.589,-12.207,47.363,40.527,-10.742,58.594
1578400669.593,-15.137,44.922,35.645,-13.672,24.902
1578400669.597,-13.672,46.875,34.668,-25.391,51.270
1578400669.601,-4.395,47.852,32.715,-23.926,54.688
1578400669.605,-6.348,39.062,34.180,-13.184,41.016
1578400669.609,-9.766,38.574,35.156,-4.883,3.418
1578400669.612,-1.953,46.387,35.156,2.930,-9.277
1578400669.616,6.348,49.805,35.156,5.859,18.555
1578400669.620,19.043,47.363,33.203,12.695,50.293
1578400669.624,20.020,37.109,28.320,16.113,61.523
1578400669.628,14.160,36.133,22.461,17.578,-21.973
1578400669.632,15.625,44.434,25.879,16.602,10.742
1578400669.636,19.043,42.480,32.715,9.766,102.539
1578400669.640,29.297,33.203,34.668,13.672,88.379
1578400669.644,34.668,29.785,32.715,25.391,61.523
1578400669.648,27.344,30.762,25.879,29.785,28.809
1578400669.652,28.809,37.109,23.926,33.203,33.203
1578400669.655,38.574,39.551,26.367,34.180,-1.465
1578400669.659,47.363,40.527,24.414,34.180,-1.953
1578400669.663,46.387,43.457,23.438,41.992,55.176
1578400669.667,37.109,43.457,27.344,45.898,70.801
1578400669.671,36.621,38.574,33.203,46.875,64.453
1578400669.675,40.527,37.109,32.227,43.457,60.547
1578400669.679,46.387,31.738,25.391,38.574,42.969
1578400669.683,48.340,33.203,27.832,40.527,75.195
1578400669.687,39.551,41.016,30.273,41.992,67.383
1578400669.691,38.086,33.691,32.227,47.852,8.789
1578400669.695,40.039,33.691,30.273,44.434,34.668
1578400669.698,47.363,38.086,32.715,41.504,78.613
1578400669.702,52.246,36.621,40.039,46.875,70.801
1578400669.706,43.945,36.133,38.574,44.922,44.922
1578400669.710,40.039,29.297,33.691,39.062,9.766
1578400669.714,37.598,32.227,37.109,30.762,-13.672
1578400669.718,37.109,39.062,37.598,22.949,31.738
1578400669.722,41.016,45.410,36.621,25.391,34.180
1578400669.726,38.574,45.898,37.109,30.762,38.574
1578400669.730,31.738,38.086,32.715,26.855,75.684
1578400669.734,27.344,34.180,30.273,20.996,-0.488
1578400669.737,40.527,35.645,35.156,26.855,-38.086
1578400669.741,47.852,41.992,37.598,35.156,35.156
1578400669.745,40.039,37.598,34.668,38.086,104.492
1578400669.749,35.156,31.738,37.598,40.527,98.145
1578400669.753,33.691,37.598,39.062,35.645,49.316
1578400669.757,40.527,44.922,34.668,31.738,-5.859
1578400669.761,46.387,50.781,33.203,32.715,-19.531
1578400669.765,36.621,47.852,30.762,32.715,-1.953
1578400669.769,27.344,39.551,32.715,35.645,0.488
1578400669.773,30.273,35.645,37.109,39.551,-5.859
1578400669.777,37.109,39.062,36.133,37.598,-13.184
1578400669.780,44.922,47.852,41.016,42.480,9.766
1578400669.784,45.410,46.387,46.875,48.340,1.953
1578400669.788,38.086,40.039,40.527,48.340,9.766
1578400669.792,37.109,37.109,37.598,49.805,27.832
1578400669.796,38.574,40.527,41.992,43.457,33.691
1578400669.800,42.480,48.340,40.527,43.457,32.715
1578400669.804,44.434,45.410,41.992,43.945,33.203
1578400669.808,37.109,47.852,40.527,40.039,79.102
1578400669.812,34.180,47.363,35.645,38.086,32.227
1578400669.816,36.133,42.969,32.227,29.297,-8.789
1578400669.820,49.805,41.504,31.738,36.133,80.078
1578400669.823,61.035,37.109,35.156,54.688,64.941
1578400669.827,39.551,40.039,35.645,36.621,87.402
1578400669.831,14.160,43.457,33.203,7.324,102.051
1578400669.835,15.137,40.527,35.156,4.395,21.973
1578400669.839,28.809,40.527,37.109,11.719,4.883
1578400669.843,26.855,42.969,33.691,10.742,5.859
1578400669.847,18.066,37.109,26.855,7.812,55.176
1578400669.851,14.160,34.180,26.367,3.906,74.219
1578400669.855,9.277,36.133,29.785,-1.953,27.344
1578400669.859,18.066,37.109,29.785,6.348,-5.371
1578400669.862,27.832,39.551,25.391,15.137,45.898
1578400669.866,24.414,39.551,31.738,21.973,114.258
1578400669.870,20.996,43.457,31.250,25.391,73.730
1578400669.874,25.879,43.945,26.367,24.902,59.570
1578400669.878,38.086,39.551,31.250,31.738,71.777
1578400669.882,42.969,38.086,31.738,37.598,33.203
1578400669.886,37.598,36.133,34.668,40.527,70.801
1578400669.890,32.227,36.133,34.180,36.133,61.035
1578400669.894,34.180,40.527,31.250,26.855,-13.184
1578400669.898,42.969,44.922,34.668,26.855,19.043
1578400669.902,46.387,36.621,35.645,32.227,37.598
1578400669.905,41.504,30.762,31.738,38.574,17.090
1578400669.909,40.527,36.621,31.250,40.039,-4.395
1578400669.913,42.969,43.457,29.785,31.250,-41.504
1578400669.917,53.223,45.410,25.879,25.879,-21.484
1578400669.921,58.105,45.898,27.344,29.785,14.648
1578400669.925,52.246,50.781,31.738,36.621,33.203
1578400669.929,37.598,52.246,31.738,34.180,-7.812
1578400669.933,36.133,51.758,27.344,32.715,-20.020
1578400669.937,42.969,40.527,21.973,29.297,-20.996
1578400669.941,41.504,30.273,24.902,23.438,-12.207
1578400669.945,41.016,34.668,32.227,29.785,68.359
1578400669.948,38.086,38.574,33.203,30.762,113.281
1578400669.952,32.715,38.086,28.809,23.438,62.500
1578400669.956,35.645,41.016,30.273,22.949,47.363
1578400669.960,43.945,42.480,33.691,28.320,60.547
1578400669.964,48.340,36.621,33.203,41.016,21.484
1578400669.968,41.016,32.715,32.227,47.852,4.883
1578400669.972,38.086,39.551,33.691,42.969,12.695
1578400669.976,42.969,38.574,33.691,37.598,27.832
1578400669.980,45.898,34.668,30.762,37.109,90.332
1578400669.984,46.387,39.551,30.762,41.504,80.078
1578400669.987,32.715,35.645,29.785,39.551,50.781
1578400669.991,24.414,36.133,25.391,35.156,32.227
1578400669.995,34.668,43.457,20.020,32.715,62.988
1578400669.999,46.875,41.016,20.996,36.133,45.898
1578400670.003,45.410,39.062,24.414,42.969,20.996
1578400670.007,38.574,39.551,26.855,45.898,4.883
1578400670.011,32.227,42.480,24.414,41.504,26.367
1578400670.015,32.715,41.504,26.367,33.203,62.012
1578400670.019,39.062,38.086,28.320,31.250,43.945
1578400670.023,42.480,42.480,22.949,38.574,78.125
1578400670.027,38.574,45.410,20.508,37.598,89.844
1578400670.030,33.203,42.480,22.461,30.273,88.867
1578400670.034,40.527,40.527,24.902,26.367,39.551
1578400670.038,51.270,44.922,26.367,28.809,25.391
1578400670.042,54.688,46.875,35.645,34.668,72.754
1578400670.046,46.387,40.039,38.574,37.109,64.941
1578400670.050,32.715,34.180,34.668,37.109,23.438
1578400670.054,39.062,40.527,36.133,38.086,38.086
1578400670.058,51.270,48.828,36.133,36.621,37.109
1578400670.062,49.805,47.363,37.598,40.527,-16.602
1578400670.066,51.270,41.992,41.016,57.617,6.836
1578400670.070,41.504,38.574,39.551,56.152,3.906
1578400670.073,24.414,39.551,35.645,28.809,27.344
1578400670.077,30.273,44.434,29.785,20.508,18.555
1578400670.081,29.785,43.457,30.273,24.414,-9.277
1578400670.085,24.902,42.480,32.715,28.809,-13.672
1578400670.089,28.320,43.945,33.203,36.133,4.395
1578400670.093,18.555,42.969,32.715,26.367,56.152
1578400670.097,25.391,41.504,32.715,23.438,55.664
1578400670.101,41.992,42.480,35.645,35.645,62.012
1578400670.105,35.645,39.551,35.645,36.133,57.129
1578400670.109,26.855,38.086,36.133,37.598,41.016
1578400670.112,32.715,46.387,35.645,40.039,49.805
1578400670.116,39.062,45.898,34.668,28.320,58.105
1578400670.120,42.480,39.551,39.551,23.926,103.516
1578400670.124,40.527,43.457,43.945,35.156,69.336
1578400670.128,31.738,38.574,43.945,34.668,28.809
1578400670.132,33.691,34.668,36.133,22.461,12.207
1578400670.136,42.969,42.969,35.645,18.555,41.504
1578400670.140,42.969,41.992,43.945,26.855,83.984
1578400670.144,37.598,42.480,44.922,35.156,57.617
1578400670.148,31.250,42.480,47.852,40.527,62.012
1578400670.152,30.762,41.504,44.922,39.551,62.500
1578400670.155,39.551,42.969,36.133,38.574,22.461
1578400670.159,44.434,41.992,34.668,42.969,3.906
1578400670.163,44.922,41.016,35.156,48.828,27.832
1578400670.167,41.992,43.457,38.086,52.734,17.090
1578400670.171,33.203,44.434,34.180,42.969,30.762
1578400670.175,38.086,36.621,28.809,35.645,12.695
1578400670.179,49.316,41.016,36.133,38.574,-14.160
1578400670.183,45.410,48.828,42.480,42.969,18.555
1578400670.187,34.668,41.504,34.668,41.016,49.805
1578400670.191,30.762,35.156,30.762,36.133,44.922
1578400670.195,38.086,38.574,32.715,29.785,-10.254
1578400670.198,48.340,41.504,32.715,33.203,-44.434
1578400670.202,53.711,43.945,33.691,42.969,-22.949
1578400670.206,47.852,45.898,34.180,44.922,5.371
1578400670.210,42.480,39.062,31.738,41.504,62.988
1578400670.214,46.875,41.992,32.715,33.691,52.734
1578400670.218,52.246,46.875,35.156,27.832,8.789
1578400670.222,48.340,42.480,38.574,27.832,41.504
1578400670.226,38.086,38.086,39.551,28.809,60.547
1578400670.230,27.832,38.574,35.645,28.320,54.199
1578400670.234,26.367,37.598,35.156,24.902,9.277
1578400670.237,35.645,34.668,32.227,27.832,7.812
1578400670.241,39.551,39.551,26.855,33.691,74.219
1578400670.245,36.621,42.969,27.832,40.527,10.254
1578400670.249,28.809,43.457,32.227,42.969,-25.391
1578400670.253,25.879,44.922,34.668,36.133,9.766
1578400670.257,34.180,41.504,37.598,32.227,14.160
1578400670.261,42.969,39.062,41.504,36.133,28.320
1578400670.265,37.598,31.738,41.504,42.969,38.086
1578400670.269,28.809,30.273,37.109,45.898,16.602
1578400670.273,28.320,32.715,30.762,43.945,25.879
1578400670.277,35.156,26.367,33.203,42.969,3.906
1578400670.280,37.598,31.250,35.156,39.062,-3.418
1578400670.284,34.180,37.598,32.227,41.016,40.039
1578400670.288,29.785,41.016,34.180,43.945,32.715
1578400670.292,34.180,40.039,31.738,39.062,-10.254
1578400670.296,41.016,39.551,31.250,32.715,-3.418
1578400670.300,47.852,41.504,38.086,28.320,49.316
1578400670.304,48.340,35.645,35.156,34.180,53.711
1578400670.308,45.410,35.156,29.785,41.504,65.430
1578400670.312,44.434,36.133,31.250,34.668,21.484
1578400670.316,42.969,27.832,38.086,26.855,41.016
1578400670.320,43.945,32.227,44.922,28.809,79.102
1578400670.323,38.574,43.945,40.039,32.715,15.625
1578400670.327,25.879,41.504,39.062,31.250,31.250
1578400670.331,20.996,37.598,41.992,26.367,68.359
1578400670.335,25.879,37.598,34.668,23.926,82.520
1578400670.339,34.668,33.691,31.250,25.879,87.891
1578400670.343,41.992,34.180,32.715,34.180,78.613
1578400670.347,36.133,32.715,38.086,40.039,65.918
1578400670.351,30.273,35.156,45.410,37.109,23.926
1578400670.355,35.156,39.551,46.387,30.762,50.781
1578400670.359,45.898,32.227,48.828,33.203,57.129
1578400670.362,49.316,34.180,49.316,40.527,-1.953
1578400670.366,35.156,39.551,42.969,40.039,55.664
1578400670.370,27.344,35.156,35.156,33.691,101.562
1578400670.374,34.668,37.109,36.133,31.738,55.176
1578400670.378,41.016,42.480,36.621,38.574,70.312
1578400670.382,40.039,39.062,33.203,38.574,115.723
1578400670.386,32.227,40.527,32.715,39.062,129.883
1578400670.390,30.762,38.574,40.527,48.828,54.688
1578400670.394,38.574,33.691,42.969,54.688,36.621
1578400670.398,41.016,44.922,32.227,44.434,52.734
1578400670.402,35.156,53.711,28.809,25.391,-12.695
1578400670.405,24.414,48.828,26.855,14.648,-18.555
1578400670.409,20.020,45.410,22.949,16.113,19.531
1578400670.413,19.531,45.898,17.090,7.812,60.059
1578400670.417,32.227,43.457,16.113,8.789,31.250
1578400670.421,42.969,43.945,16.602,11.230,-32.227
1578400670.425,39.062,49.805,20.020,11.230,-30.273
1578400670.429,32.227,52.734,25.391,12.207,37.598
1578400670.433,32.227,56.152,22.461,5.371,24.414
1578400670.437,39.551,65.430,21.484,7.324,-5.371
1578400670.441,44.434,62.012,27.344,19.043,7.812
1578400670.445,45.410,49.316,26.367,29.785,50.293
1578400670.448,41.992,41.992,27.344,32.715,38.574
1578400670.452,41.992,41.016,32.227,35.645,10.742
1578400670.456,53.711,48.828,29.785,38.574,8.301
1578400670.460,62.988,50.781,29.297,35.156,46.387
1578400670.464,56.641,47.852,30.762,41.504,61.523
1578400670.468,45.410,49.316,30.762,44.434,87.402
1578400670.472,39.551,45.410,29.297,38.086,77.637
1578400670.476,44.922,39.551,32.715,37.598,29.785
1578400670.480,52.734,43.945,35.645,38.086,52.246
1578400670.484,48.828,48.828,35.156,42.480,92.285
1578400670.487,43.945,46.875,34.668,44.434,70.801
1578400670.491,43.457,45.410,34.180,40.039,67.871
1578400670.495,43.945,42.480,30.762,33.691,34.180
1578400670.499,50.293,41.992,33.691,31.250,23.438
1578400670.503,43.945,42.969,34.180,29.785,54.199
1578400670.507,31.738,36.621,38.086,32.227,40.039
1578400670.511,28.809,35.645,42.969,32.715,28.320
1578400670.515,33.203,36.133,39.062,25.879,9.766
1578400670.519,41.016,29.785,40.527,24.414,4.883
1578400670.523,43.457,36.621,33.203,28.320,17.090
1578400670.527,41.992,45.898,27.344,33.203,40.039
1578400670.530,33.203,42.969,30.273,32.227,13.672
1578400670.534,35.156,42.969,25.391,28.320,-20.508
1578400670.538,49.316,45.898,26.855,31.250,22.949
1578400670.542,57.129,48.340,34.668,41.504,41.992
1578400670.546,50.293,44.434,32.715,50.781,69.336
1578400670.550,43.945,34.180,32.715,49.316,44.434
1578400670.554,52.734,36.621,33.203,44.922,-61.523
1578400670.558,61.523,39.551,32.227,46.387,-35.645
1578400670.562,60.059,41.016,36.621,51.270,27.344
1578400670.566,54.688,45.898,39.551,52.246,31.738
1578400670.570,42.969,38.086,34.668,45.410,64.453
1578400670.573,36.621,41.016,32.227,37.598,114.746
1578400670.577,40.039,42.480,33.691,36.621,63.965
1578400670.581,43.945,33.203,35.156,38.086,-14.160
1578400670.585,40.527,27.832,39.062,39.062,7.812
1578400670.589,33.203,29.297,40.039,40.527,18.555
1578400670.593,32.715,30.762,37.109,41.016,22.949
1578400670.597,38.574,34.180,32.227,37.598,28.809
1578400670.601,44.434,40.527,37.109,38.086,29.297
1578400670.605,41.016,41.016,42.480,40.527,85.449
1578400670.609,30.762,38.086,32.227,38.574,30.273
1578400670.612,24.902,37.109,30.273,25.879,-26.367
1578400670.616,29.785,34.180,36.133,16.113,-38.574
1578400670.620,35.645,34.668,36.133,22.949,-18.555
1578400670.624,34.180,37.598,30.762,31.738,55.176
1578400670.628,28.320,32.227,31.738,31.738,83.496
1578400670.632,27.832,30.273,37.598,30.273,39.062
1578400670.636,32.715,34.668,32.227,28.320,49.805
1578400670.640,38.574,36.133,27.344,32.227,22.949
1578400670.644,37.598,37.109,28.809,40.527,0.000
1578400670.648,34.668,42.480,31.738,40.527,58.105
1578400670.652,33.691,42.969,37.109,38.086,43.457
1578400670.655,42.480,39.062,40.039,35.156,36.133
1578400670.659,54.199,46.875,42.969,36.621,94.727
1578400670.663,48.828,54.199,43.457,42.480,91.309
1578400670.667,38.086,44.922,41.504,44.434,61.523
1578400670.671,32.227,35.645,37.109,41.016,45.410
1578400670.675,33.203,40.527,27.832,35.645,27.832
1578400670.679,41.016,43.945,29.297,42.969,30.273
1578400670.683,45.410,42.969,36.621,49.805,53.711
1578400670.687,33.691,39.551,39.062,43.457,45.898
1578400670.691,23.926,39.551,40.527,39.062,-34.180
1578400670.695,31.250,45.898,38.086,38.574,-23.438
1578400670.698,41.992,44.922,40.039,36.133,-5.859
1578400670.702,43.457,43.457,41.016,40.527,18.555
1578400670.706,39.062,41.504,38.086,43.945,62.500
1578400670.710,35.156,39.062,33.691,38.574,54.688
1578400670.714,38.574,34.180,30.762,33.691,66.895
1578400670.718,41.504,35.156,35.156,30.273,40.039
1578400670.722,41.016,42.969,41.016,33.691,-7.812
1578400670.726,36.133,46.387,40.039,34.180,20.508
1578400670.730,27.832,44.434,37.598,28.320,54.688
1578400670.734,29.297,41.992,37.109,27.832,51.270
1578400670.737,37.109,40.039,39.062,28.320,-6.836
1578400670.741,43.457,43.945,40.039,31.250,-11.719
1578400670.745,43.457,43.457,39.062,37.598,46.387
1578400670.749,34.180,37.109,35.645,37.598,79.102
1578400670.753,37.109,45.898,30.273,31.250,75.195
1578400670.757,46.387,44.922,32.227,29.785,34.668
1578400670.761,50.293,39.062,40.527,33.203,52.246
1578400670.765,43.457,38.086,39.062,37.598,83.008
1578400670.769,32.227,30.762,35.645,40.039,95.703
1578400670.773,27.344,28.320,37.109,29.297,102.539
1578400670.777,36.621,33.691,35.645,22.949,39.551
1578400670.780,45.898,34.668,30.762,26.855,-18.066
1578400670.784,42.480,39.551,29.297,33.203,16.602
1578400670.788,32.227,41.504,31.738,37.598,81.543
1578400670.792,32.227,36.621,28.809,33.203,75.684
1578400670.796,43.457,43.945,29.785,32.715,48.828
1578400670.800,48.340,43.945,38.086,38.086,29.297
1578400670.804,40.527,34.180,35.156,41.504,53.711
1578400670.808,29.297,34.668,32.227,41.016,81.055
1578400670.812,27.832,36.621,32.715,32.227,60.059
1578400670.816,29.785,38.086,27.344,22.461,26.367
1578400670.820,33.203,35.645,26.367,23.438,-1.953
1578400670.823,31.250,35.645,26.367,26.855,35.645
1578400670.827,21.484,39.062,25.879,24.414,33.203
1578400670.831,21.484,38.574,27.344,22.949,4.883
1578400670.835,26.855,40.527,32.227,21.973,-21.484
1578400670.839,31.250,38.574,35.645,14.160,-6.836
1578400670.843,37.598,38.574,33.691,18.066,40.039
1578400670.847,37.598,37.109,33.203,31.738,9.277
1578400670.851,31.250,34.668,33.203,30.762,-22.461
1578400670.855,36.621,36.621,34.180,26.367,-35.645
1578400670.859,48.340,35.156,29.297,30.762,-40.039
1578400670.862,44.922,34.180,27.832,38.086,14.160
1578400670.866,35.645,35.156,28.320,45.898,55.176
1578400670.870,27.832,31.738,25.879,43.457,16.602
1578400670.874,34.180,34.668,33.203,39.551,-17.090
1578400670.878,41.992,38.574,42.480,39.551,40.039
1578400670.882,45.898,39.062,45.898,41.504,89.355
1578400670.886,49.805,31.250,39.551,56.152,34.668
1578400670.890,45.410,30.762,35.645,58.105,-32.715
1578400670.894,34.180,43.457,36.133,33.203,-25.879
1578400670.898,33.691,41.992,36.621,22.949,14.160
1578400670.902,39.062,35.156,38.086,31.738,81.543
1578400670.905,33.691,35.645,37.109,34.668,59.570
1578400670.909,37.109,39.551,31.738,37.109,38.086
1578400670.913,48.340,43.457,30.762,35.645,50.781
1578400670.917,54.199,43.457,27.832,29.297,54.688
1578400670.921,58.594,35.645,24.902,34.180,74.219
1578400670.925,49.316,34.180,33.691,38.086,50.781
1578400670.929,33.203,38.086,31.250,26.367,7.324
1578400670.933,29.297,36.621,26.367,20.996,-10.742
1578400670.937,30.762,37.598,26.855,24.414,10.254
1578400670.941,34.668,43.457,25.391,24.902,14.160
1578400670.945,37.598,42.480,29.785,34.668,15.137
1578400670.948,33.691,46.387,33.691,42.480,23.926
1578400670.952,35.156,47.363,27.832,40.039,83.984
1578400670.956,47.852,37.598,30.762,43.945,61.035
1578400670.960,55.176,44.922,41.016,50.781,5.859
1578400670.964,47.852,55.176,36.133,54.688,17.090
1578400670.968,39.551,52.246,28.320,53.223,20.508
1578400670.972,40.039,50.781,32.227,50.781,23.438
1578400670.976,44.434,44.434,33.203,45.410,73.242
1578400670.980,47.852,43.457,35.156,42.480,103.516
1578400670.984,46.875,48.340,38.574,44.922,47.363
1578400670.987,42.480,41.992,33.203,46.387,-25.391
1578400670.991,36.621,38.574,27.344,39.062,-17.090
1578400670.995,41.504,42.480,29.785,27.344,41.504
1578400670.999,49.316,49.316,33.203,28.320,64.453
1578400671.003,42.480,44.434,26.367,28.320,59.082
1578400671.007,30.273,38.574,26.855,29.297,56.152
1578400671.011,27.344,40.527,34.180,34.180,64.941
1578400671.015,35.156,41.016,35.156,32.227,24.902
1578400671.019,43.945,36.621,35.645,33.203,7.324
1578400671.023,45.410,34.180,30.762,43.457,27.832
1578400671.027,39.551,36.133,29.785,47.852,-77.637
1578400671.030,35.156,39.551,35.156,44.434,-14.160
1578400671.034,37.109,44.922,39.551,37.109,69.336
1578400671.038,41.504,49.316,32.715,34.180,-19.531
1578400671.042,45.410,44.922,31.250,39.062,-8.301
1578400671.046,41.992,34.668,36.621,38.086,-38.574
1578400671.050,36.133,40.527,34.668,40.039,15.137
1578400671.054,43.457,43.945,36.621,44.922,84.961
1578400671.058,55.664,36.621,41.016,45.410,54.199
1578400671.062,52.246,35.645,39.062,48.828,20.996
1578400671.066,45.898,31.738,37.109,52.734,10.742
1578400671.070,42.969,30.762,40.039,49.316,68.848
1578400671.073,43.945,29.297,41.504,41.504,109.375
1578400671.077,53.711,30.273,38.086,38.086,119.141
1578400671.081,57.129,38.574,36.133,39.551,64.941
1578400671.085,52.246,33.203,38.086,44.434,7.812
1578400671.089,52.246,32.715,37.598,47.852,41.016
1578400671.093,62.988,36.133,36.621,57.617,66.406
1578400671.097,68.848,34.180,36.621,61.035,24.414
1578400671.101,47.363,39.062,34.668,36.621,10.742
1578400671.105,31.250,38.086,29.785,23.438,36.621
1578400671.109,33.691,28.809,32.715,29.297,86.426
1578400671.112,44.434,24.902,30.273,34.668,24.414
1578400671.116,58.594,29.785,21.484,36.133,-10.742
1578400671.120,63.965,31.250,18.066,40.527,35.156
1578400671.124,59.570,33.691,16.113,43.457,79.102
1578400671.128,55.664,33.691,12.695,47.363,73.730
1578400671.132,58.105,31.250,13.672,44.922,22.949
1578400671.136,62.012,33.203,14.648,33.691,57.617
1578400671.140,71.777,35.156,14.160,39.062,58.594
1578400671.144,72.266,39.062,16.602,51.758,62.988
1578400671.148,60.547,36.133,14.160,58.594,66.895
1578400671.152,55.664,37.598,18.555,54.199,37.109
1578400671.155,63.477,43.945,25.391,45.410,25.879
1578400671.159,66.406,44.922,21.973,43.457,29.297
1578400671.163,57.617,37.109,22.949,45.898,89.844
1578400671.167,48.340,31.250,24.414,47.363,74.707
1578400671.171,42.480,29.785,25.391,42.969,35.156
1578400671.175,46.875,28.320,28.320,41.992,47.852
1578400671.179,55.664,37.109,27.344,43.945,21.973
1578400671.183,50.293,34.668,27.832,45.898,9.277
1578400671.187,41.016,29.297,32.715,49.805,65.430
1578400671.191,40.527,32.227,34.180,53.223,61.035
1578400671.195,48.340,30.273,34.180,50.293,-5.859
1578400671.198,55.664,33.691,32.715,48.340,22.949
1578400671.202,56.641,39.062,32.715,53.711,84.961
1578400671.206,50.781,41.504,33.691,55.176,20.508
1578400671.210,41.504,38.086,36.133,51.758,-5.371
